G:\BEAR_storage\User_Experiments\20220108_arneodo\Bpm\file(1)_bpm_0010.txt
Ring Energy (GeV): 2
Lifetime (hours): 16.9136
Scan beginning: 8/1/2022	12:24:57 PM
Ring current (mA): 308.18
Source position: x (mm): -0.005 x' (mrad): 0.004 y (mm): -0.001 y' (mrad): 0.002
Scan end: 8/1/2022	12:42:48 PM
Ring current (mA): 307.79
Source position: x (mm): -0.005 x' (mrad): 0.003 y (mm): -0.001 y' (mrad): 0.003

SCAN TYPE: PHOTON ENERGY VS VAR_1 VS VAR_2

FILE INFO: FILE INFO:

SCAN PARAMETERS
waiting time (ms): 1000
Number of scans: 1
Current scan number: 1
DARK OFF 
PREDARK OFF 

SCAN PARAMETERS
Regions configuration: 
number of regions: 6
Mirror grating scan: on
Timed acquisition: off
Region 1:
Initial energy (eV): 40.000000
Final energy (eV): 72.000000
Delta energy (eV): 5.000000
Deviation angle choice: Higher order rejection
Deviation angle (°): NaN
Al filter
G1200 channel
range keithley B 20 nA
range keithley C 2 uA
range keithley A 20 nA
Var_1: XM3.000000
Var_2: YM15.000000
Bias CEM (V): 0.000000
Bias Keithley B (V): -30.000000
Name region: 
Region 2:
Initial energy (eV): 70.000000
Final energy (eV): 102.000000
Delta energy (eV): 5.000000
Deviation angle choice: Higher order rejection
Deviation angle (°): NaN
Si filter
G1200 channel
range keithley B 200 nA
range keithley C 2 uA
range keithley A 20 nA
Var_1: XM3.000000
Var_2: YM15.000000
Bias CEM (V): 0.000000
Bias Keithley B (V): -30.000000
Name region: 
Region 3:
Initial energy (eV): 98.000000
Final energy (eV): 260.000000
Delta energy (eV): 5.000000
Deviation angle choice: Higher order rejection
Deviation angle (°): NaN
Full Beam
G1200 channel
range keithley B 200 nA
range keithley C 20 uA
range keithley A 200 nA
Var_1: XM3.000000
Var_2: YM15.000000
Bias CEM (V): 0.000000
Bias Keithley B (V): -30.000000
Name region: 
Region 4:
Initial energy (eV): 255.000000
Final energy (eV): 320.000000
Delta energy (eV): 5.000000
Deviation angle choice: Higher order rejection
Deviation angle (°): NaN
filter Ag 0.6 um
G1200 channel
range keithley B 20 nA
range keithley C 2 uA
range keithley A 200 nA
Var_1: XM3.000000
Var_2: YM15.000000
Bias CEM (V): 0.000000
Bias Keithley B (V): -30.000000
Name region: 
Region 5:
Initial energy (eV): 315.000000
Final energy (eV): 1200.000000
Delta energy (eV): 5.000000
Deviation angle choice: Higher order rejection
Deviation angle (°): NaN
Full Beam
G1200 channel
range keithley B 20 nA
range keithley C 2 uA
range keithley A 200 nA
Var_1: XM3.000000
Var_2: YM15.000000
Bias CEM (V): 0.000000
Bias Keithley B (V): -30.000000
Name region: 
Region 6:
Initial energy (eV): 1190.000000
Final energy (eV): 1500.000000
Delta energy (eV): 5.000000
Deviation angle choice: Higher order rejection
Deviation angle (°): NaN
filter Ag 0.6 um
G1200 channel
range keithley B 20 nA
range keithley C 2 uA
range keithley A 200 nA
Var_1: XM3.000000
Var_2: YM15.000000
Bias CEM (V): 0.000000
Bias Keithley B (V): -30.000000
Name region: 

BEAR MONOCHROMATOR CONFIGURATION: 
Current Grating Position:     -159950.20
Current Mirror Position: 2556.9
Current Grating: G1200
P2 phiz position:  0.0000
Mono axis position: 25.0000
Current Photon Energy (eV): 100.000
Current Deviation Angle: 155.000
Vertical Exit Slits (um): 450.000
Exit slit y axis position: 2.2375
Horizontal Exit Slits (um):  890.000
Exit slit z axis position: 1.9250
Mitutoyo position (mm): 

Dose on sample (mJ/cm^2): NaN

ENERGY CALIBRATION:
offset grating G1200: yes
Delta 0 order G1200:  -500.0
offset grating G1800: not
Delta 0 order G1800:  0.0
offset grating GNIM: not
Delta 0 order GNIM:  0.0
ZERO ORDER POSITIONS:
Grating G1200: Mirror position:  4938.0
Grating position: -105355.0
Grating G1800: 
Mirror position:  4938.0
Grating position: -106345.0
Grating GNIM: 
Mirror position:  10000.0
Grating position: 227300.0

Initial filter: Si filter

EXPERIMENTAL CHAMBER CONFIGURATION: 
PsiC (deg):   0.036413
Phi Analyzer (degrees): -0.009471
Theta Manipulator (degrees): -45.000040
Theta Analyzer (degrees): -0.000455
PhiM (degrees): -0.005129
XM (mm): 3.000075
YM (mm): 14.999963
ZM (mm): (Warning: for kinetic energy scans, 
this parameter is given in the scan settings) 
-8.300063
TiltM (°): -0.000275

COIL VALUES
Ix (amps):2.950
Iy (amps): 6.790
Iz (amps): 14.440

POLARIZATION SELECTOR CONFIGURATION:
Psi1 (rad): -0.001665535
Psi2 (rad): 0.001417093
Z min position (mm): 46.599650
DZ position (mm): 18.599100
Zmin 0 (mm): 66.500000
DZ0 (mm): 53.000000

BEAM SELECTOR CONFIGURATION:
Zmin position (mm): 158.000000
DZ position (mm): 264.000000
Y+ position (mm): 291.700000
Y- position (mm): NaN

CHANNEL ELECTRON MULTIPLIER CONFIGURATION:
CEM configured: OFF
Bias CEM: 0.000000

FLUORESCENCE DETECTOR CONFIGURATION:
Not configured

LUMINESCENCE MONOCHROMATOR CONFIGURATION:
Optical fiber position (mm): 0.000000
Optical fiber Switch inside: OFF
Optical fiber Switch outside: ON
Monochromator wavelength (A): 229000.000000
Limit Switches: OFF

I0 MONITOR PARAMETERS:
I0 detector position(mm): -0.000000E+0
Lower switch: OFF
Upper switch: OFF
Valve status:open

PRESSURE PARAMETERS:
Monitor chamber pressure (mbar): 2.367e-09
Experimental chamber pressure -ION GAUGE-(mbar): 0.000000E+0

XMCD PARAMETERS:
Xmcd OFF
Xmcd Direction -
Xmcd current (A): 0.000000

Gated scan on
Shutter open time (ms): 614271349
Shutter aperture time (ms): 1062621

Instrument 1: AMMETER KEITHLEY 6517A B
Measure type: Current
range type: set range value
range value (ampere):  200 pA
Integration time:  set NPLC value
NPLC value: 10.000
Digital filter count: 2
SAMPLE BIAS (V): -30.000
Vsource: ON
Output Voltage value: 30.000
Vsource range: 1000 V

Range Keithley B changed to 20 nA

Range Keithley B changed to 200 pA

Range Keithley B changed to 20 nA

Range Keithley B changed to 200 pA

Range Keithley B changed to 20 nA

Range Keithley B changed to 200 pA

Range Keithley B changed to 20 nA

Range Keithley B changed to 200 pA

Range Keithley B changed to 20 nA

Range Keithley B changed to 200 nA

Range Keithley B changed to 20 nA

Instrument 2: AMMETER KEITHLEY 6517A A
Measure type: Current
range type: set range value
range value (ampere):  20 nA
Integration time:  set NPLC value
NPLC value: 10.000
Digital filter count: 2
Vsource: OFF
Output Voltage value: -0.000
Vsource range: 100 V
Trigger source: bus

Range Keithley A changed to 200 nA

Range Keithley A changed to 200 pA

Range Keithley A changed to 20 nA

Range Keithley A changed to 200 nA

Range Keithley A changed to 20 nA

Range Keithley A changed to 200 nA

Instrument 3: None


________________________________________________________________________________

RelativeTime (msec)	Photon Energy	Var_1	Var_2	a) I_1 (Amps)	b) I_2 (Amps)	d) I_3 (Amps)	c) I_4 (Amps)	I_BPM_sum (Amps)	Delta Z(mm)	
________________________________________________________________________________

8.97100000E+3	3.99998758E+1	3.00000000E+0	1.50000000E+1	1.65191700E-5	1.14430709E-5	3.36150984E-5	2.71829012E-5	8.87602405E-5	4.74653693E-4
1.79660000E+4	4.49999411E+1	3.00000000E+0	1.50000000E+1	1.65870597E-5	1.14343925E-5	3.39268576E-5	2.72557768E-5	8.92040866E-5	4.77027201E-4
2.54790000E+4	4.99995547E+1	3.00000000E+0	1.50000000E+1	1.65483256E-5	1.14694132E-5	3.36475234E-5	2.74539772E-5	8.91192393E-5	4.76573472E-4
3.16150000E+4	5.49995701E+1	3.00000000E+0	1.50000000E+1	1.65848007E-5	1.14791049E-5	3.37090950E-5	2.72340777E-5	8.90070783E-5	4.75973681E-4
3.71730000E+4	6.00000546E+1	3.00000000E+0	1.50000000E+1	1.64126177E-5	1.15181400E-5	3.36186747E-5	2.72482755E-5	8.87977080E-5	4.74854054E-4
4.23540000E+4	6.49997296E+1	3.00000000E+0	1.50000000E+1	1.65952553E-5	1.14165051E-5	3.36114000E-5	2.71227720E-5	8.87459324E-5	4.74577179E-4
4.72560000E+4	7.00001230E+1	3.00000000E+0	1.50000000E+1	1.64306034E-5	1.14632769E-5	3.36635868E-5	2.71469834E-5	8.87044506E-5	4.74355351E-4
5.71820000E+4	7.00001063E+1	3.00000000E+0	1.50000000E+1	1.64992978E-5	1.15125551E-5	3.35459690E-5	2.71230968E-5	8.86809187E-5	4.74229512E-4
6.28470000E+4	7.49990978E+1	3.00000000E+0	1.50000000E+1	1.65240486E-5	1.14814236E-5	3.37877999E-5	2.69184085E-5	8.87116806E-5	4.74394014E-4
6.73350000E+4	7.99999504E+1	3.00000000E+0	1.50000000E+1	1.65361216E-5	1.14285363E-5	3.37343048E-5	2.71664205E-5	8.88653831E-5	4.75215953E-4
7.17070000E+4	8.49996136E+1	3.00000000E+0	1.50000000E+1	1.65030827E-5	1.14679142E-5	3.35565547E-5	2.72115919E-5	8.87391435E-5	4.74540874E-4
7.59060000E+4	9.00001958E+1	3.00000000E+0	1.50000000E+1	1.63130690E-5	1.15285917E-5	3.36667995E-5	2.73335102E-5	8.88419704E-5	4.75090751E-4
7.99890000E+4	9.49994868E+1	3.00000000E+0	1.50000000E+1	1.64603104E-5	1.14933862E-5	3.37320219E-5	2.71710726E-5	8.88567911E-5	4.75170006E-4
8.40670000E+4	1.00000754E+2	3.00000000E+0	1.50000000E+1	1.64602657E-5	1.14850714E-5	3.37289493E-5	2.71280857E-5	8.88023721E-5	4.74878995E-4
9.35070000E+4	9.80016170E+1	3.00000000E+0	1.50000000E+1	1.64242287E-5	1.15751698E-5	3.38295947E-5	2.72107932E-5	8.90397863E-5	4.76148590E-4
9.85390000E+4	1.02998975E+2	3.00000000E+0	1.50000000E+1	1.65836443E-5	1.15299805E-5	3.37285887E-5	2.72181245E-5	8.90603380E-5	4.76258492E-4
1.02496000E+5	1.08000716E+2	3.00000000E+0	1.50000000E+1	1.65523698E-5	1.15471526E-5	3.39723061E-5	2.72011193E-5	8.92729478E-5	4.77395443E-4
1.06365000E+5	1.12999697E+2	3.00000000E+0	1.50000000E+1	1.64137443E-5	1.15403517E-5	3.37389748E-5	2.72818807E-5	8.89749514E-5	4.75801879E-4
1.10179000E+5	1.17999609E+2	3.00000000E+0	1.50000000E+1	1.65371706E-5	1.14984288E-5	3.37712120E-5	2.74467739E-5	8.92535852E-5	4.77291900E-4
1.13901000E+5	1.22998869E+2	3.00000000E+0	1.50000000E+1	1.63111945E-5	1.14969923E-5	3.38696133E-5	2.71750035E-5	8.88528036E-5	4.75148682E-4
1.17612000E+5	1.28001553E+2	3.00000000E+0	1.50000000E+1	1.67011162E-5	1.15217789E-5	3.39139830E-5	2.70235481E-5	8.91604262E-5	4.76793723E-4
1.21169000E+5	1.32997604E+2	3.00000000E+0	1.50000000E+1	1.65133526E-5	1.15385963E-5	3.35079859E-5	2.72236648E-5	8.87835996E-5	4.74778607E-4
1.24744000E+5	1.38001309E+2	3.00000000E+0	1.50000000E+1	1.64817591E-5	1.14683374E-5	3.37660770E-5	2.72923413E-5	8.90085148E-5	4.75981362E-4
1.28324000E+5	1.43001052E+2	3.00000000E+0	1.50000000E+1	1.64949079E-5	1.14835842E-5	3.37389509E-5	2.71299454E-5	8.88473885E-5	4.75119725E-4
1.31889000E+5	1.47999355E+2	3.00000000E+0	1.50000000E+1	1.66229864E-5	1.15131869E-5	3.37879817E-5	2.74082395E-5	8.93323945E-5	4.77713340E-4
1.36201000E+5	1.52991828E+2	3.00000000E+0	1.50000000E+1	1.65758004E-5	1.14853187E-5	3.36783628E-5	2.72721293E-5	8.90116112E-5	4.75997921E-4
1.41085000E+5	1.58013660E+2	3.00000000E+0	1.50000000E+1	1.66032751E-5	1.14862664E-5	3.37277542E-5	2.71454039E-5	8.89626996E-5	4.75736362E-4
1.45934000E+5	1.62972352E+2	3.00000000E+0	1.50000000E+1	1.65701886E-5	1.14832713E-5	3.36897801E-5	2.72085431E-5	8.89517831E-5	4.75677984E-4
1.50773000E+5	1.68026775E+2	3.00000000E+0	1.50000000E+1	1.65799399E-5	1.14458366E-5	3.37207238E-5	2.70463797E-5	8.87928800E-5	4.74828235E-4
1.55660000E+5	1.72979484E+2	3.00000000E+0	1.50000000E+1	1.64531608E-5	1.15381880E-5	3.37849449E-5	2.72122386E-5	8.89885323E-5	4.75874504E-4
1.60526000E+5	1.78021102E+2	3.00000000E+0	1.50000000E+1	1.64671113E-5	1.15567579E-5	3.37382357E-5	2.74365219E-5	8.91986268E-5	4.76998004E-4
1.65390000E+5	1.82975751E+2	3.00000000E+0	1.50000000E+1	1.67282571E-5	1.15097089E-5	3.37091486E-5	2.73828867E-5	8.93300014E-5	4.77700542E-4
1.70300000E+5	1.88024017E+2	3.00000000E+0	1.50000000E+1	1.65993710E-5	1.14956810E-5	3.39837443E-5	2.73479912E-5	8.94267874E-5	4.78218115E-4
1.75046000E+5	1.92976913E+2	3.00000000E+0	1.50000000E+1	1.64336373E-5	1.14385857E-5	3.38331442E-5	2.71027806E-5	8.88081478E-5	4.74909881E-4
1.79834000E+5	1.98023927E+2	3.00000000E+0	1.50000000E+1	1.65011813E-5	1.15452780E-5	3.36947660E-5	2.71752688E-5	8.89164941E-5	4.75489273E-4
1.84599000E+5	2.02975290E+2	3.00000000E+0	1.50000000E+1	1.64063563E-5	1.14327832E-5	3.39319627E-5	2.71995219E-5	8.89706241E-5	4.75778738E-4
1.89341000E+5	2.08022835E+2	3.00000000E+0	1.50000000E+1	1.66150679E-5	1.14524974E-5	3.37807249E-5	2.72849443E-5	8.91332345E-5	4.76648313E-4
1.94074000E+5	2.12982930E+2	3.00000000E+0	1.50000000E+1	1.65860822E-5	1.15262194E-5	3.37147485E-5	2.72570434E-5	8.90840935E-5	4.76385527E-4
1.98796000E+5	2.18013175E+2	3.00000000E+0	1.50000000E+1	1.64351334E-5	1.14418103E-5	3.36861025E-5	2.70614239E-5	8.86244701E-5	4.73927647E-4
2.03533000E+5	2.22987991E+2	3.00000000E+0	1.50000000E+1	1.65000160E-5	1.15047439E-5	3.37553035E-5	2.71496746E-5	8.89097379E-5	4.75453144E-4
2.08273000E+5	2.27997403E+2	3.00000000E+0	1.50000000E+1	1.64704611E-5	1.14858254E-5	3.36567651E-5	2.71573039E-5	8.87703554E-5	4.74707783E-4
2.13024000E+5	2.33005412E+2	3.00000000E+0	1.50000000E+1	1.66047802E-5	1.14881172E-5	3.35100572E-5	2.71754297E-5	8.87783842E-5	4.74750718E-4
2.17765000E+5	2.37985023E+2	3.00000000E+0	1.50000000E+1	1.66145672E-5	1.13982840E-5	3.37798934E-5	2.71779689E-5	8.89707135E-5	4.75779217E-4
2.22477000E+5	2.43014478E+2	3.00000000E+0	1.50000000E+1	1.66079094E-5	1.14524020E-5	3.38482241E-5	2.71973195E-5	8.91058551E-5	4.76501899E-4
2.27209000E+5	2.47966626E+2	3.00000000E+0	1.50000000E+1	1.66008939E-5	1.15393801E-5	3.37161849E-5	2.73085060E-5	8.91649651E-5	4.76817995E-4
2.31392000E+5	2.53039535E+2	3.00000000E+0	1.50000000E+1	1.65179272E-5	1.15067108E-5	3.37026189E-5	2.72886011E-5	8.90158581E-5	4.76020631E-4
2.35140000E+5	2.57995686E+2	3.00000000E+0	1.50000000E+1	1.65764888E-5	1.15541949E-5	3.36546938E-5	2.72771391E-5	8.90625166E-5	4.76270142E-4
2.43097000E+5	2.55000489E+2	3.00000000E+0	1.50000000E+1	1.63572182E-5	1.15364327E-5	3.39242588E-5	2.72780987E-5	8.90960084E-5	4.76449243E-4
2.47603000E+5	2.59992326E+2	3.00000000E+0	1.50000000E+1	1.66018327E-5	1.15319087E-5	3.35355173E-5	2.71301421E-5	8.87994008E-5	4.74863106E-4
2.51334000E+5	2.64996150E+2	3.00000000E+0	1.50000000E+1	1.64416214E-5	1.14530517E-5	3.36191903E-5	2.70717504E-5	8.85856138E-5	4.73719860E-4
2.55081000E+5	2.69993109E+2	3.00000000E+0	1.50000000E+1	1.66819920E-5	1.14901020E-5	3.36664896E-5	2.71084639E-5	8.89470475E-5	4.75652660E-4
2.59511000E+5	2.75009959E+2	3.00000000E+0	1.50000000E+1	1.64127965E-5	1.14802821E-5	3.37468515E-5	2.73606244E-5	8.90005546E-5	4.75938794E-4
2.63225000E+5	2.80010787E+2	3.00000000E+0	1.50000000E+1	1.66122993E-5	1.14608927E-5	3.37212722E-5	2.71313551E-5	8.89258193E-5	4.75539140E-4
2.66944000E+5	2.84998395E+2	3.00000000E+0	1.50000000E+1	1.64624234E-5	1.15163876E-5	3.38337819E-5	2.72734138E-5	8.90860068E-5	4.76395758E-4
2.70685000E+5	2.89996732E+2	3.00000000E+0	1.50000000E+1	1.65225615E-5	1.14562913E-5	3.35442821E-5	2.69656184E-5	8.84887533E-5	4.73201889E-4
2.74455000E+5	2.94991834E+2	3.00000000E+0	1.50000000E+1	1.63939019E-5	1.14539875E-5	3.36216609E-5	2.69745471E-5	8.84440975E-5	4.72963088E-4
2.78236000E+5	2.99989393E+2	3.00000000E+0	1.50000000E+1	1.65010859E-5	1.14801152E-5	3.35089396E-5	2.72536161E-5	8.87437569E-5	4.74565545E-4
2.81976000E+5	3.04993216E+2	3.00000000E+0	1.50000000E+1	1.64690395E-5	1.14352449E-5	3.36662929E-5	2.72216591E-5	8.87922363E-5	4.74824793E-4
2.85693000E+5	3.10010343E+2	3.00000000E+0	1.50000000E+1	1.63656314E-5	1.15819617E-5	3.37518613E-5	2.70901444E-5	8.87895988E-5	4.74810689E-4
2.89301000E+5	3.15004798E+2	3.00000000E+0	1.50000000E+1	1.64104809E-5	1.14682330E-5	3.36208175E-5	2.72592607E-5	8.87587921E-5	4.74645947E-4
2.92926000E+5	3.20003899E+2	3.00000000E+0	1.50000000E+1	1.66124990E-5	1.15337535E-5	3.36484472E-5	2.71306726E-5	8.89253722E-5	4.75536750E-4
3.01294000E+5	3.14985020E+2	3.00000000E+0	1.50000000E+1	1.65204366E-5	1.14995702E-5	3.36799870E-5	2.73572537E-5	8.90572475E-5	4.76241965E-4
3.06096000E+5	3.20011109E+2	3.00000000E+0	1.50000000E+1	1.65032079E-5	1.15226908E-5	3.39325379E-5	2.71277430E-5	8.90861796E-5	4.76396682E-4
3.09833000E+5	3.25002714E+2	3.00000000E+0	1.50000000E+1	1.65498604E-5	1.14431186E-5	3.37857257E-5	2.70848754E-5	8.88635801E-5	4.75206311E-4
3.13572000E+5	3.29995267E+2	3.00000000E+0	1.50000000E+1	1.65084769E-5	1.15115626E-5	3.37623458E-5	2.73570123E-5	8.91393976E-5	4.76681271E-4
3.17217000E+5	3.34979982E+2	3.00000000E+0	1.50000000E+1	1.64582421E-5	1.14882483E-5	3.36868088E-5	2.71232935E-5	8.87565927E-5	4.74634186E-4
3.20931000E+5	3.39993984E+2	3.00000000E+0	1.50000000E+1	1.64057096E-5	1.14302947E-5	3.36070041E-5	2.71789822E-5	8.86219905E-5	4.73914388E-4
3.24672000E+5	3.45007403E+2	3.00000000E+0	1.50000000E+1	1.65223171E-5	1.14760532E-5	3.36826841E-5	2.70238700E-5	8.87049244E-5	4.74357885E-4
3.28284000E+5	3.50019305E+2	3.00000000E+0	1.50000000E+1	1.64768358E-5	1.15070297E-5	3.36225580E-5	2.71652165E-5	8.87716399E-5	4.74714652E-4
3.32175000E+5	3.55000276E+2	3.00000000E+0	1.50000000E+1	1.65773382E-5	1.14656075E-5	3.34101091E-5	2.71951827E-5	8.86482374E-5	4.74054746E-4
3.36129000E+5	3.59995706E+2	3.00000000E+0	1.50000000E+1	1.67053749E-5	1.14897771E-5	3.34007839E-5	2.72467646E-5	8.88427006E-5	4.75094656E-4
3.40017000E+5	3.64969922E+2	3.00000000E+0	1.50000000E+1	1.64737155E-5	1.14852442E-5	3.36095552E-5	2.71902713E-5	8.87587862E-5	4.74645915E-4
3.43910000E+5	3.70005015E+2	3.00000000E+0	1.50000000E+1	1.65494074E-5	1.15532174E-5	3.38741641E-5	2.71975371E-5	8.91743260E-5	4.76868053E-4
3.47825000E+5	3.75034182E+2	3.00000000E+0	1.50000000E+1	1.65921946E-5	1.15115239E-5	3.39248280E-5	2.73360762E-5	8.93646228E-5	4.77885683E-4
3.51700000E+5	3.79990256E+2	3.00000000E+0	1.50000000E+1	1.65406753E-5	1.14808513E-5	3.37264161E-5	2.72467586E-5	8.89947014E-5	4.75907494E-4
3.55574000E+5	3.84973617E+2	3.00000000E+0	1.50000000E+1	1.65713032E-5	1.15407272E-5	3.37071399E-5	2.73696753E-5	8.91888457E-5	4.76945699E-4
3.59633000E+5	3.89981902E+2	3.00000000E+0	1.50000000E+1	1.64064159E-5	1.14871575E-5	3.36482476E-5	2.72225532E-5	8.87643741E-5	4.74675797E-4
3.63491000E+5	3.95033839E+2	3.00000000E+0	1.50000000E+1	1.65177186E-5	1.15174218E-5	3.38208716E-5	2.73875746E-5	8.92435866E-5	4.77238431E-4
3.67379000E+5	4.00018284E+2	3.00000000E+0	1.50000000E+1	1.65698935E-5	1.15042879E-5	3.36703966E-5	2.70621630E-5	8.88067411E-5	4.74902359E-4
3.71263000E+5	4.05000189E+2	3.00000000E+0	1.50000000E+1	1.65113350E-5	1.15405931E-5	3.38394265E-5	2.71290722E-5	8.90204268E-5	4.76045063E-4
3.75138000E+5	4.09973033E+2	3.00000000E+0	1.50000000E+1	1.65490558E-5	1.15186109E-5	3.35734348E-5	2.72227230E-5	8.88638245E-5	4.75207617E-4
3.79065000E+5	4.14970925E+2	3.00000000E+0	1.50000000E+1	1.65442069E-5	1.14768191E-5	3.37155144E-5	2.72123131E-5	8.89488535E-5	4.75662318E-4
3.82930000E+5	4.20033018E+2	3.00000000E+0	1.50000000E+1	1.65625801E-5	1.14439531E-5	3.37211500E-5	2.72972378E-5	8.90249209E-5	4.76069096E-4
3.86921000E+5	4.25012943E+2	3.00000000E+0	1.50000000E+1	1.65088763E-5	1.15143372E-5	3.36551081E-5	2.71129551E-5	8.87912767E-5	4.74819661E-4
3.90799000E+5	4.29980266E+2	3.00000000E+0	1.50000000E+1	1.65761342E-5	1.15648939E-5	3.38228147E-5	2.71465572E-5	8.91104000E-5	4.76526203E-4
3.94684000E+5	4.34985336E+2	3.00000000E+0	1.50000000E+1	1.65678998E-5	1.15552558E-5	3.38372807E-5	2.73007932E-5	8.92612295E-5	4.77332778E-4
3.98559000E+5	4.39996743E+2	3.00000000E+0	1.50000000E+1	1.65440847E-5	1.15221127E-5	3.38232170E-5	2.72617909E-5	8.91512053E-5	4.76744413E-4
4.02426000E+5	4.45035000E+2	3.00000000E+0	1.50000000E+1	1.65175219E-5	1.15428730E-5	3.37708841E-5	2.74550441E-5	8.92863231E-5	4.77466968E-4
4.06397000E+5	4.49986692E+2	3.00000000E+0	1.50000000E+1	1.64417555E-5	1.15569695E-5	3.37910901E-5	2.71098199E-5	8.88996349E-5	4.75399117E-4
4.10004000E+5	4.54993477E+2	3.00000000E+0	1.50000000E+1	1.65173908E-5	1.14700569E-5	3.37756346E-5	2.73159626E-5	8.90790449E-5	4.76358529E-4
4.13599000E+5	4.60001089E+2	3.00000000E+0	1.50000000E+1	1.66267325E-5	1.14796205E-5	3.37276916E-5	2.74670276E-5	8.93010723E-5	4.77545841E-4
4.17222000E+5	4.64967955E+2	3.00000000E+0	1.50000000E+1	1.64906730E-5	1.15001424E-5	3.37486725E-5	2.71591606E-5	8.88986485E-5	4.75393842E-4
4.20843000E+5	4.70024442E+2	3.00000000E+0	1.50000000E+1	1.64601346E-5	1.15055962E-5	3.34249030E-5	2.72958460E-5	8.86864798E-5	4.74259250E-4
4.24437000E+5	4.75024840E+2	3.00000000E+0	1.50000000E+1	1.65719767E-5	1.15152701E-5	3.38908802E-5	2.72263351E-5	8.92044621E-5	4.77029209E-4
4.28022000E+5	4.79998409E+2	3.00000000E+0	1.50000000E+1	1.64918234E-5	1.15541204E-5	3.38475417E-5	2.71015617E-5	8.89950471E-5	4.75909343E-4
4.31627000E+5	4.84984606E+2	3.00000000E+0	1.50000000E+1	1.65866276E-5	1.15216805E-5	3.37328683E-5	2.72196892E-5	8.90608655E-5	4.76261313E-4
4.35343000E+5	4.89983380E+2	3.00000000E+0	1.50000000E+1	1.65793528E-5	1.14474429E-5	3.36918990E-5	2.73155930E-5	8.90342878E-5	4.76119186E-4
4.39058000E+5	4.94984563E+2	3.00000000E+0	1.50000000E+1	1.64844711E-5	1.14507689E-5	3.38761757E-5	2.71319839E-5	8.89433997E-5	4.75633153E-4
4.42781000E+5	4.99988632E+2	3.00000000E+0	1.50000000E+1	1.65290405E-5	1.15066125E-5	3.36661081E-5	2.72573474E-5	8.89591085E-5	4.75717158E-4
4.46384000E+5	5.05015322E+2	3.00000000E+0	1.50000000E+1	1.66208555E-5	1.15398033E-5	3.35551391E-5	2.72636118E-5	8.89794098E-5	4.75825721E-4
4.49979000E+5	5.10032206E+2	3.00000000E+0	1.50000000E+1	1.65773918E-5	1.15178629E-5	3.37464373E-5	2.72185924E-5	8.90602844E-5	4.76258205E-4
4.54423000E+5	5.14996595E+2	3.00000000E+0	1.50000000E+1	1.65365477E-5	1.14383413E-5	3.37074290E-5	2.71070364E-5	8.87893544E-5	4.74809382E-4
4.58134000E+5	5.19998465E+2	3.00000000E+0	1.50000000E+1	1.66541209E-5	1.14741130E-5	3.34937285E-5	2.70481172E-5	8.86700795E-5	4.74171548E-4
4.61757000E+5	5.24972512E+2	3.00000000E+0	1.50000000E+1	1.64747913E-5	1.14994957E-5	3.38886957E-5	2.72104296E-5	8.90734123E-5	4.76328408E-4
4.65375000E+5	5.30012103E+2	3.00000000E+0	1.50000000E+1	1.64904584E-5	1.15168526E-5	3.36387734E-5	2.72094342E-5	8.88555186E-5	4.75163201E-4
4.69065000E+5	5.34974411E+2	3.00000000E+0	1.50000000E+1	1.66232963E-5	1.14963217E-5	3.36441915E-5	2.73472103E-5	8.91110199E-5	4.76529518E-4
4.72779000E+5	5.40018095E+2	3.00000000E+0	1.50000000E+1	1.65720930E-5	1.15111037E-5	3.36642901E-5	2.72956732E-5	8.90431600E-5	4.76166631E-4
4.76375000E+5	5.45038526E+2	3.00000000E+0	1.50000000E+1	1.64301385E-5	1.14492490E-5	3.38565956E-5	2.70592871E-5	8.87952702E-5	4.74841017E-4
4.80152000E+5	5.49975108E+2	3.00000000E+0	1.50000000E+1	1.65707846E-5	1.14520802E-5	3.36393307E-5	2.73335281E-5	8.89957236E-5	4.75912960E-4
4.83909000E+5	5.54998929E+2	3.00000000E+0	1.50000000E+1	1.65603121E-5	1.15022375E-5	3.38593613E-5	2.71405133E-5	8.90624242E-5	4.76269648E-4
4.87512000E+5	5.60004473E+2	3.00000000E+0	1.50000000E+1	1.65961494E-5	1.14011510E-5	3.37254564E-5	2.73092332E-5	8.90319901E-5	4.76106899E-4
4.91223000E+5	5.64961057E+2	3.00000000E+0	1.50000000E+1	1.64400746E-5	1.14454492E-5	3.36316030E-5	2.71072807E-5	8.86244075E-5	4.73927313E-4
4.94934000E+5	5.69995221E+2	3.00000000E+0	1.50000000E+1	1.65045341E-5	1.15146025E-5	3.38515829E-5	2.70787987E-5	8.89495181E-5	4.75665872E-4
4.98548000E+5	5.75023521E+2	3.00000000E+0	1.50000000E+1	1.65394326E-5	1.14855810E-5	3.37118338E-5	2.70422342E-5	8.87790816E-5	4.74754447E-4
5.02132000E+5	5.80016258E+2	3.00000000E+0	1.50000000E+1	1.65846755E-5	1.15282162E-5	3.38634263E-5	2.72234860E-5	8.91998040E-5	4.77004299E-4
5.05850000E+5	5.84995390E+2	3.00000000E+0	1.50000000E+1	1.65313055E-5	1.13626255E-5	3.36264621E-5	2.72179249E-5	8.87383179E-5	4.74536460E-4
5.09483000E+5	5.90011336E+2	3.00000000E+0	1.50000000E+1	1.65070494E-5	1.14561244E-5	3.37705205E-5	2.72421124E-5	8.89758067E-5	4.75806453E-4
5.13098000E+5	5.94956101E+2	3.00000000E+0	1.50000000E+1	1.66267474E-5	1.15188493E-5	3.36768250E-5	2.73860815E-5	8.92085033E-5	4.77050820E-4
5.16703000E+5	6.00007467E+2	3.00000000E+0	1.50000000E+1	1.64567013E-5	1.14678456E-5	3.39862268E-5	2.72745642E-5	8.91853379E-5	4.76926941E-4
5.20269000E+5	6.04977455E+2	3.00000000E+0	1.50000000E+1	1.64595326E-5	1.14684417E-5	3.37460856E-5	2.70917329E-5	8.87657927E-5	4.74683383E-4
5.23854000E+5	6.10040752E+2	3.00000000E+0	1.50000000E+1	1.65286799E-5	1.14735766E-5	3.35228364E-5	2.73619148E-5	8.88870077E-5	4.75331592E-4
5.27573000E+5	6.15005610E+2	3.00000000E+0	1.50000000E+1	1.63839151E-5	1.14365889E-5	3.36660992E-5	2.70684513E-5	8.85550545E-5	4.73556441E-4
5.31184000E+5	6.19995761E+2	3.00000000E+0	1.50000000E+1	1.66029324E-5	1.14833518E-5	3.37170343E-5	2.71185222E-5	8.89218407E-5	4.75517864E-4
5.34902000E+5	6.24986276E+2	3.00000000E+0	1.50000000E+1	1.64949705E-5	1.15369870E-5	3.37825547E-5	2.72811416E-5	8.90956538E-5	4.76447346E-4
5.38494000E+5	6.29996947E+2	3.00000000E+0	1.50000000E+1	1.64547016E-5	1.14834143E-5	3.35816185E-5	2.70936104E-5	8.86133449E-5	4.73868154E-4
5.42189000E+5	6.34971997E+2	3.00000000E+0	1.50000000E+1	1.66385283E-5	1.15152611E-5	3.38480155E-5	2.71986726E-5	8.92004775E-5	4.77007901E-4
5.45915000E+5	6.40000571E+2	3.00000000E+0	1.50000000E+1	1.66495254E-5	1.15089013E-5	3.36792032E-5	2.71088841E-5	8.89465140E-5	4.75649808E-4
5.49621000E+5	6.45020036E+2	3.00000000E+0	1.50000000E+1	1.65543099E-5	1.14529206E-5	3.36587827E-5	2.71812084E-5	8.88472216E-5	4.75118832E-4
5.53334000E+5	6.50008981E+2	3.00000000E+0	1.50000000E+1	1.63437714E-5	1.15104659E-5	3.37361972E-5	2.71355244E-5	8.87259589E-5	4.74470369E-4
5.56994000E+5	6.55017077E+2	3.00000000E+0	1.50000000E+1	1.64430608E-5	1.14655270E-5	3.35249792E-5	2.70744118E-5	8.85079787E-5	4.73304699E-4
5.60588000E+5	6.60010897E+2	3.00000000E+0	1.50000000E+1	1.65269752E-5	1.14445164E-5	3.36711179E-5	2.69450667E-5	8.85876761E-5	4.73730888E-4
5.64196000E+5	6.64969615E+2	3.00000000E+0	1.50000000E+1	1.64800664E-5	1.15207120E-5	3.38870536E-5	2.70633640E-5	8.89511959E-5	4.75674845E-4
5.67911000E+5	6.69964838E+2	3.00000000E+0	1.50000000E+1	1.64913495E-5	1.14701702E-5	3.36493145E-5	2.72102269E-5	8.88210611E-5	4.74978936E-4
5.71572000E+5	6.75032485E+2	3.00000000E+0	1.50000000E+1	1.64292146E-5	1.14479704E-5	3.37980162E-5	2.70918521E-5	8.87670533E-5	4.74690125E-4
5.75308000E+5	6.80004094E+2	3.00000000E+0	1.50000000E+1	1.66271647E-5	1.14858611E-5	3.35659186E-5	2.73734066E-5	8.90523510E-5	4.76215781E-4
5.78925000E+5	6.85038028E+2	3.00000000E+0	1.50000000E+1	1.66053136E-5	1.14853426E-5	3.35416238E-5	2.71247062E-5	8.87569861E-5	4.74636289E-4
5.82643000E+5	6.89989604E+2	3.00000000E+0	1.50000000E+1	1.65678789E-5	1.15581288E-5	3.38693272E-5	2.72301379E-5	8.92254727E-5	4.77141565E-4
5.86257000E+5	6.94972757E+2	3.00000000E+0	1.50000000E+1	1.64735516E-5	1.15065886E-5	3.38303934E-5	2.73169371E-5	8.91274707E-5	4.76617491E-4
5.89985000E+5	6.99990022E+2	3.00000000E+0	1.50000000E+1	1.65349175E-5	1.15041955E-5	3.40410839E-5	2.71918359E-5	8.92720329E-5	4.77390550E-4
5.93592000E+5	7.05004245E+2	3.00000000E+0	1.50000000E+1	1.66008731E-5	1.15765645E-5	3.38569562E-5	2.73830983E-5	8.94174921E-5	4.78168407E-4
5.97301000E+5	7.10005075E+2	3.00000000E+0	1.50000000E+1	1.64942672E-5	1.14965929E-5	3.38923674E-5	2.74843129E-5	8.93675404E-5	4.77901286E-4
6.01037000E+5	7.15019793E+2	3.00000000E+0	1.50000000E+1	1.67093148E-5	1.15725680E-5	3.40575974E-5	2.73274186E-5	8.96668988E-5	4.79502133E-4
6.04738000E+5	7.20010858E+2	3.00000000E+0	1.50000000E+1	1.65418347E-5	1.15266575E-5	3.39209716E-5	2.72058788E-5	8.91953426E-5	4.76980442E-4
6.08483000E+5	7.24983848E+2	3.00000000E+0	1.50000000E+1	1.65182789E-5	1.15193440E-5	3.37788473E-5	2.72147748E-5	8.90312450E-5	4.76102914E-4
6.12128000E+5	7.30020086E+2	3.00000000E+0	1.50000000E+1	1.64495577E-5	1.14827408E-5	3.35621844E-5	2.72277745E-5	8.87222575E-5	4.74450575E-4
6.15821000E+5	7.34950334E+2	3.00000000E+0	1.50000000E+1	1.65887435E-5	1.14884658E-5	3.35871021E-5	2.73601445E-5	8.90244560E-5	4.76066610E-4
6.19620000E+5	7.39989869E+2	3.00000000E+0	1.50000000E+1	1.64733728E-5	1.15023567E-5	3.37026547E-5	2.72549632E-5	8.89333473E-5	4.75579398E-4
6.23344000E+5	7.45023607E+2	3.00000000E+0	1.50000000E+1	1.66276624E-5	1.15849270E-5	3.39444499E-5	2.73017379E-5	8.94587772E-5	4.78389183E-4
6.27025000E+5	7.50014201E+2	3.00000000E+0	1.50000000E+1	1.63685341E-5	1.15480467E-5	3.37627988E-5	2.72924813E-5	8.89718609E-5	4.75785352E-4
6.30469000E+5	7.55010724E+2	3.00000000E+0	1.50000000E+1	1.65732552E-5	1.15517779E-5	3.37805639E-5	2.74304184E-5	8.93360155E-5	4.77732703E-4
6.33888000E+5	7.60013340E+2	3.00000000E+0	1.50000000E+1	1.65632208E-5	1.14893391E-5	3.36682479E-5	2.70402583E-5	8.87610661E-5	4.74658107E-4
6.38085000E+5	7.64993770E+2	3.00000000E+0	1.50000000E+1	1.64878418E-5	1.14980264E-5	3.35112135E-5	2.72883448E-5	8.87854265E-5	4.74788377E-4
6.41488000E+5	7.69992009E+2	3.00000000E+0	1.50000000E+1	1.64682795E-5	1.14851369E-5	3.39132290E-5	2.74079475E-5	8.92745929E-5	4.77404240E-4
6.44963000E+5	7.74980617E+2	3.00000000E+0	1.50000000E+1	1.65640284E-5	1.14467843E-5	3.36567084E-5	2.72284510E-5	8.88959722E-5	4.75379531E-4
6.48439000E+5	7.79980495E+2	3.00000000E+0	1.50000000E+1	1.65537764E-5	1.15039154E-5	3.37373565E-5	2.71995130E-5	8.89945613E-5	4.75906745E-4
6.51948000E+5	7.84999830E+2	3.00000000E+0	1.50000000E+1	1.65117671E-5	1.14868774E-5	3.38842969E-5	2.72563162E-5	8.91392576E-5	4.76680522E-4
6.55384000E+5	7.89999366E+2	3.00000000E+0	1.50000000E+1	1.64866467E-5	1.15899189E-5	3.37694447E-5	2.73168716E-5	8.91628819E-5	4.76806855E-4
6.58848000E+5	7.95008652E+2	3.00000000E+0	1.50000000E+1	1.66008164E-5	1.14569946E-5	3.35509430E-5	2.72383454E-5	8.88470994E-5	4.75118179E-4
6.62305000E+5	8.00007768E+2	3.00000000E+0	1.50000000E+1	1.64400627E-5	1.15151330E-5	3.37731104E-5	2.73462954E-5	8.90746014E-5	4.76334767E-4
6.65744000E+5	8.05008174E+2	3.00000000E+0	1.50000000E+1	1.65146132E-5	1.15395262E-5	3.38028173E-5	2.73362818E-5	8.91932385E-5	4.76969190E-4
6.69205000E+5	8.10003897E+2	3.00000000E+0	1.50000000E+1	1.65897270E-5	1.14364161E-5	3.35608254E-5	2.72245112E-5	8.88114797E-5	4.74927699E-4
6.72612000E+5	8.14991460E+2	3.00000000E+0	1.50000000E+1	1.63974901E-5	1.14635183E-5	3.36577932E-5	2.74002376E-5	8.89190392E-5	4.75502884E-4
6.76057000E+5	8.19982903E+2	3.00000000E+0	1.50000000E+1	1.65589263E-5	1.15230276E-5	3.37813805E-5	2.72216054E-5	8.90849398E-5	4.76390053E-4
6.79481000E+5	8.24988853E+2	3.00000000E+0	1.50000000E+1	1.64198597E-5	1.15801438E-5	3.37792139E-5	2.71820637E-5	8.89612811E-5	4.75728776E-4
6.82973000E+5	8.29977465E+2	3.00000000E+0	1.50000000E+1	1.66635235E-5	1.15471436E-5	3.35522483E-5	2.71597179E-5	8.89226334E-5	4.75522104E-4
6.86415000E+5	8.35004688E+2	3.00000000E+0	1.50000000E+1	1.65224542E-5	1.14648564E-5	3.34989737E-5	2.71452847E-5	8.86315690E-5	4.73965610E-4
6.89828000E+5	8.39998314E+2	3.00000000E+0	1.50000000E+1	1.64019574E-5	1.15293189E-5	3.34500144E-5	2.70182463E-5	8.83995370E-5	4.72724797E-4
6.93250000E+5	8.44998011E+2	3.00000000E+0	1.50000000E+1	1.65468981E-5	1.14823504E-5	3.38109742E-5	2.70569804E-5	8.88972031E-5	4.75386113E-4
6.96742000E+5	8.50003624E+2	3.00000000E+0	1.50000000E+1	1.65392687E-5	1.15621193E-5	3.36291204E-5	2.75242868E-5	8.92547952E-5	4.77298370E-4
6.99600000E+5	8.55025692E+2	3.00000000E+0	1.50000000E+1	1.65453901E-5	1.14812596E-5	3.39100789E-5	2.72778365E-5	8.92145651E-5	4.77083236E-4
7.02444000E+5	8.59984226E+2	3.00000000E+0	1.50000000E+1	1.65324588E-5	1.14769174E-5	3.37718706E-5	2.72615018E-5	8.90427487E-5	4.76164432E-4
7.05302000E+5	8.65001700E+2	3.00000000E+0	1.50000000E+1	1.64546182E-5	1.15401461E-5	3.37126742E-5	2.72753778E-5	8.89828162E-5	4.75843937E-4
7.08163000E+5	8.69996312E+2	3.00000000E+0	1.50000000E+1	1.66977694E-5	1.14844783E-5	3.37370346E-5	2.71840754E-5	8.91033577E-5	4.76488544E-4
7.10998000E+5	8.75001883E+2	3.00000000E+0	1.50000000E+1	1.65162672E-5	1.15911408E-5	3.37090860E-5	2.72676053E-5	8.90840994E-5	4.76385558E-4
7.13862000E+5	8.79986617E+2	3.00000000E+0	1.50000000E+1	1.65406277E-5	1.14884599E-5	3.37287615E-5	2.71074655E-5	8.88653146E-5	4.75215586E-4
7.16733000E+5	8.84989988E+2	3.00000000E+0	1.50000000E+1	1.65303190E-5	1.14745035E-5	3.36615871E-5	2.73400578E-5	8.90064673E-5	4.75970414E-4
7.19553000E+5	8.89999547E+2	3.00000000E+0	1.50000000E+1	1.65894200E-5	1.14747478E-5	3.36813252E-5	2.71084430E-5	8.88539361E-5	4.75154738E-4
7.22416000E+5	8.95008357E+2	3.00000000E+0	1.50000000E+1	1.65642549E-5	1.15473850E-5	3.37313811E-5	2.72661271E-5	8.91091483E-5	4.76519510E-4
7.25265000E+5	8.99988429E+2	3.00000000E+0	1.50000000E+1	1.65844132E-5	1.15070059E-5	3.37173502E-5	2.72941056E-5	8.91028749E-5	4.76485962E-4
7.28144000E+5	9.04993573E+2	3.00000000E+0	1.50000000E+1	1.65044685E-5	1.14827706E-5	3.36263935E-5	2.70979824E-5	8.87116151E-5	4.74393663E-4
7.31004000E+5	9.09993367E+2	3.00000000E+0	1.50000000E+1	1.65882488E-5	1.14186450E-5	3.36208473E-5	2.72651019E-5	8.88928430E-5	4.75362797E-4
7.34088000E+5	9.15004628E+2	3.00000000E+0	1.50000000E+1	1.65275444E-5	1.14804788E-5	3.36637030E-5	2.73176107E-5	8.89893370E-5	4.75878807E-4
7.37298000E+5	9.20024937E+2	3.00000000E+0	1.50000000E+1	1.63708766E-5	1.14867075E-5	3.37139438E-5	2.73105803E-5	8.88821082E-5	4.75305391E-4
7.40127000E+5	9.24974857E+2	3.00000000E+0	1.50000000E+1	1.66875352E-5	1.15334316E-5	3.39998643E-5	2.71090957E-5	8.93299269E-5	4.77700144E-4
7.42996000E+5	9.29989675E+2	3.00000000E+0	1.50000000E+1	1.65152629E-5	1.15600719E-5	3.35977207E-5	2.71783742E-5	8.88514297E-5	4.75141335E-4
7.45873000E+5	9.34999292E+2	3.00000000E+0	1.50000000E+1	1.64917459E-5	1.14968463E-5	3.38600408E-5	2.72165927E-5	8.90652256E-5	4.76284629E-4
7.48731000E+5	9.39986618E+2	3.00000000E+0	1.50000000E+1	1.64981802E-5	1.14396169E-5	3.35813354E-5	2.71728310E-5	8.86919634E-5	4.74288574E-4
7.51565000E+5	9.44992088E+2	3.00000000E+0	1.50000000E+1	1.64378543E-5	1.15421667E-5	3.36934756E-5	2.71121326E-5	8.87856291E-5	4.74789461E-4
7.54435000E+5	9.49998594E+2	3.00000000E+0	1.50000000E+1	1.64960702E-5	1.14445164E-5	3.37614517E-5	2.72136721E-5	8.89157103E-5	4.75485082E-4
7.57174000E+5	9.54990957E+2	3.00000000E+0	1.50000000E+1	1.65726115E-5	1.14615454E-5	3.37334256E-5	2.74185035E-5	8.91860860E-5	4.76930941E-4
7.59910000E+5	9.59994790E+2	3.00000000E+0	1.50000000E+1	1.64430399E-5	1.15056230E-5	3.39128654E-5	2.72914859E-5	8.91530143E-5	4.76754087E-4
7.62620000E+5	9.64988260E+2	3.00000000E+0	1.50000000E+1	1.65055533E-5	1.15589275E-5	3.36902152E-5	2.73004266E-5	8.90551226E-5	4.76230602E-4
7.65375000E+5	9.70007896E+2	3.00000000E+0	1.50000000E+1	1.63832386E-5	1.14827080E-5	3.33883266E-5	2.72510770E-5	8.85053502E-5	4.73290643E-4
7.68081000E+5	9.74995166E+2	3.00000000E+0	1.50000000E+1	1.64517631E-5	1.14643111E-5	3.35949908E-5	2.71305355E-5	8.86416004E-5	4.74019254E-4
7.70786000E+5	9.79984380E+2	3.00000000E+0	1.50000000E+1	1.65186723E-5	1.14831193E-5	3.36269836E-5	2.70537051E-5	8.86824803E-5	4.74237863E-4
7.73509000E+5	9.84992311E+2	3.00000000E+0	1.50000000E+1	1.65412088E-5	1.15380331E-5	3.36070846E-5	2.73077938E-5	8.89941202E-5	4.75904386E-4
7.76201000E+5	9.89999605E+2	3.00000000E+0	1.50000000E+1	1.63614918E-5	1.14770009E-5	3.36788754E-5	2.70583304E-5	8.85756986E-5	4.73666837E-4
7.78914000E+5	9.95000477E+2	3.00000000E+0	1.50000000E+1	1.65190210E-5	1.14489331E-5	3.35854183E-5	2.71732333E-5	8.87266056E-5	4.74473827E-4
7.81628000E+5	1.00000106E+3	3.00000000E+0	1.50000000E+1	1.64635380E-5	1.15240707E-5	3.36826365E-5	2.72396657E-5	8.89099108E-5	4.75454068E-4
7.84342000E+5	1.00500179E+3	3.00000000E+0	1.50000000E+1	1.66649332E-5	1.15854069E-5	3.35408191E-5	2.72737327E-5	8.90648918E-5	4.76282844E-4
7.87061000E+5	1.00997857E+3	3.00000000E+0	1.50000000E+1	1.65087213E-5	1.14932134E-5	3.35891674E-5	2.72864017E-5	8.88775037E-5	4.75280769E-4
7.90531000E+5	1.01497806E+3	3.00000000E+0	1.50000000E+1	1.64363732E-5	1.14759608E-5	3.37271969E-5	2.71073672E-5	8.87468980E-5	4.74582342E-4
7.93258000E+5	1.02001651E+3	3.00000000E+0	1.50000000E+1	1.65132244E-5	1.14785596E-5	3.38072817E-5	2.71942767E-5	8.89933424E-5	4.75900227E-4
7.95948000E+5	1.02499405E+3	3.00000000E+0	1.50000000E+1	1.64154758E-5	1.14854260E-5	3.34712515E-5	2.71468076E-5	8.85189609E-5	4.73363427E-4
7.98657000E+5	1.03000236E+3	3.00000000E+0	1.50000000E+1	1.64330442E-5	1.14689423E-5	3.36672138E-5	2.72971067E-5	8.88663070E-5	4.75220893E-4
8.01346000E+5	1.03499874E+3	3.00000000E+0	1.50000000E+1	1.65220280E-5	1.14880754E-5	3.35733543E-5	2.73030820E-5	8.88865398E-5	4.75329090E-4
8.04060000E+5	1.03998710E+3	3.00000000E+0	1.50000000E+1	1.66257550E-5	1.14166601E-5	3.36080532E-5	2.72593382E-5	8.89098065E-5	4.75453511E-4
8.06775000E+5	1.04498273E+3	3.00000000E+0	1.50000000E+1	1.64914687E-5	1.14329382E-5	3.34912042E-5	2.71940830E-5	8.86096941E-5	4.73848631E-4
8.09500000E+5	1.05000178E+3	3.00000000E+0	1.50000000E+1	1.65291716E-5	1.15098043E-5	3.37457757E-5	2.72645983E-5	8.90493499E-5	4.76199732E-4
8.12506000E+5	1.05500415E+3	3.00000000E+0	1.50000000E+1	1.64214482E-5	1.14606990E-5	3.36218844E-5	2.71564158E-5	8.86604474E-5	4.74120040E-4
8.15533000E+5	1.05997781E+3	3.00000000E+0	1.50000000E+1	1.63262744E-5	1.15170344E-5	3.36745064E-5	2.71851006E-5	8.87029158E-5	4.74347143E-4
8.18537000E+5	1.06501372E+3	3.00000000E+0	1.50000000E+1	1.64305349E-5	1.15484639E-5	3.34342132E-5	2.72009882E-5	8.86142002E-5	4.73872728E-4
8.21598000E+5	1.06996934E+3	3.00000000E+0	1.50000000E+1	1.65499170E-5	1.15116461E-5	3.36083840E-5	2.71981153E-5	8.88680624E-5	4.75230280E-4
8.24718000E+5	1.07502527E+3	3.00000000E+0	1.50000000E+1	1.64216270E-5	1.14974363E-5	3.35801641E-5	2.73177746E-5	8.88170020E-5	4.74957230E-4
8.27906000E+5	1.07999492E+3	3.00000000E+0	1.50000000E+1	1.64560665E-5	1.14323481E-5	3.36260061E-5	2.70712468E-5	8.85856674E-5	4.73720147E-4
8.30933000E+5	1.08502684E+3	3.00000000E+0	1.50000000E+1	1.64593239E-5	1.15133538E-5	3.36802642E-5	2.71120581E-5	8.87650000E-5	4.74679144E-4
8.34084000E+5	1.08996439E+3	3.00000000E+0	1.50000000E+1	1.64616813E-5	1.15172161E-5	3.36294095E-5	2.71646085E-5	8.87729155E-5	4.74721473E-4
8.37199000E+5	1.09500252E+3	3.00000000E+0	1.50000000E+1	1.66456213E-5	1.15860834E-5	3.37826084E-5	2.72442344E-5	8.92585473E-5	4.77318435E-4
8.40349000E+5	1.09999464E+3	3.00000000E+0	1.50000000E+1	1.66046341E-5	1.15510954E-5	3.38093172E-5	2.70536097E-5	8.90186565E-5	4.76035596E-4
8.43502000E+5	1.10498615E+3	3.00000000E+0	1.50000000E+1	1.65116658E-5	1.14929273E-5	3.36904298E-5	2.72324386E-5	8.89274614E-5	4.75547922E-4
8.46638000E+5	1.11001309E+3	3.00000000E+0	1.50000000E+1	1.65104319E-5	1.14910795E-5	3.37527524E-5	2.72940996E-5	8.90483635E-5	4.76194457E-4
8.49806000E+5	1.11497985E+3	3.00000000E+0	1.50000000E+1	1.64732446E-5	1.14633723E-5	3.38932257E-5	2.72328528E-5	8.90626954E-5	4.76271098E-4
8.52930000E+5	1.12000431E+3	3.00000000E+0	1.50000000E+1	1.66833987E-5	1.14420070E-5	3.38216435E-5	2.72195252E-5	8.91665744E-5	4.76826601E-4
8.56051000E+5	1.12497131E+3	3.00000000E+0	1.50000000E+1	1.65050198E-5	1.15164323E-5	3.38043581E-5	2.71897825E-5	8.90155928E-5	4.76019213E-4
8.59172000E+5	1.13000289E+3	3.00000000E+0	1.50000000E+1	1.65674349E-5	1.14693715E-5	3.39045237E-5	2.73167464E-5	8.92580765E-5	4.77315917E-4
8.62212000E+5	1.13501394E+3	3.00000000E+0	1.50000000E+1	1.63939645E-5	1.15152462E-5	3.39601498E-5	2.72181156E-5	8.90874760E-5	4.76403615E-4
8.65274000E+5	1.13996117E+3	3.00000000E+0	1.50000000E+1	1.66199168E-5	1.15131869E-5	3.37212633E-5	2.73610475E-5	8.92154144E-5	4.77087778E-4
8.68310000E+5	1.14503192E+3	3.00000000E+0	1.50000000E+1	1.67062362E-5	1.14649727E-5	3.36325000E-5	2.72785428E-5	8.90822517E-5	4.76375677E-4
8.71453000E+5	1.14996314E+3	3.00000000E+0	1.50000000E+1	1.65756365E-5	1.15441902E-5	3.38386665E-5	2.71871301E-5	8.91456233E-5	4.76714563E-4
8.74588000E+5	1.15497860E+3	3.00000000E+0	1.50000000E+1	1.66183641E-5	1.15453585E-5	3.37574969E-5	2.73193303E-5	8.92405497E-5	4.77222191E-4
8.77718000E+5	1.16000598E+3	3.00000000E+0	1.50000000E+1	1.65716787E-5	1.15606858E-5	3.36008112E-5	2.71162274E-5	8.88494031E-5	4.75130498E-4
8.80745000E+5	1.16498941E+3	3.00000000E+0	1.50000000E+1	1.64777030E-5	1.15645065E-5	3.36985181E-5	2.73982200E-5	8.91389476E-5	4.76678864E-4
8.83907000E+5	1.17000025E+3	3.00000000E+0	1.50000000E+1	1.65034761E-5	1.15444376E-5	3.39829098E-5	2.71560284E-5	8.91868519E-5	4.76935037E-4
8.87033000E+5	1.17500729E+3	3.00000000E+0	1.50000000E+1	1.65168752E-5	1.15454062E-5	3.38047813E-5	2.74278405E-5	8.92949032E-5	4.77512851E-4
8.90068000E+5	1.17999219E+3	3.00000000E+0	1.50000000E+1	1.65402104E-5	1.15078940E-5	3.36781959E-5	2.72226783E-5	8.89489787E-5	4.75662987E-4
8.93218000E+5	1.18499970E+3	3.00000000E+0	1.50000000E+1	1.65380021E-5	1.15426435E-5	3.38693302E-5	2.74747375E-5	8.94247132E-5	4.78207022E-4
8.96354000E+5	1.19000304E+3	3.00000000E+0	1.50000000E+1	1.65601929E-5	1.16128906E-5	3.40649467E-5	2.74370077E-5	8.96750378E-5	4.79545657E-4
8.99515000E+5	1.19498640E+3	3.00000000E+0	1.50000000E+1	1.65151795E-5	1.15052475E-5	3.34477345E-5	2.73115489E-5	8.87797104E-5	4.74757810E-4
9.02576000E+5	1.20000892E+3	3.00000000E+0	1.50000000E+1	1.64712091E-5	1.15023806E-5	3.36675148E-5	2.72207501E-5	8.88618545E-5	4.75197083E-4
9.10500000E+5	1.18994708E+3	3.00000000E+0	1.50000000E+1	1.66245778E-5	1.15142240E-5	3.37572168E-5	2.72341731E-5	8.91301917E-5	4.76632041E-4
9.14410000E+5	1.19502581E+3	3.00000000E+0	1.50000000E+1	1.66776468E-5	1.14176347E-5	3.36492877E-5	2.74960372E-5	8.92406063E-5	4.77222494E-4
9.17549000E+5	1.19999833E+3	3.00000000E+0	1.50000000E+1	1.65906449E-5	1.14863707E-5	3.38233779E-5	2.72543552E-5	8.91547488E-5	4.76763363E-4
9.20093000E+5	1.20500154E+3	3.00000000E+0	1.50000000E+1	1.65315469E-5	1.14876433E-5	3.37411235E-5	2.72830787E-5	8.90433924E-5	4.76167874E-4
9.22630000E+5	1.20999232E+3	3.00000000E+0	1.50000000E+1	1.66119267E-5	1.15023627E-5	3.37906401E-5	2.72051069E-5	8.91100364E-5	4.76524259E-4
9.25183000E+5	1.21500738E+3	3.00000000E+0	1.50000000E+1	1.66513522E-5	1.14312007E-5	3.37762217E-5	2.71327409E-5	8.89915155E-5	4.75890457E-4
9.27700000E+5	1.21998706E+3	3.00000000E+0	1.50000000E+1	1.65043016E-5	1.14405795E-5	3.36565117E-5	2.71463754E-5	8.87477683E-5	4.74586996E-4
9.30216000E+5	1.22500141E+3	3.00000000E+0	1.50000000E+1	1.67593022E-5	1.15320279E-5	3.37127010E-5	2.71347257E-5	8.91387569E-5	4.76677844E-4
9.32731000E+5	1.22999627E+3	3.00000000E+0	1.50000000E+1	1.65628423E-5	1.14793165E-5	3.37436239E-5	2.71706137E-5	8.89563965E-5	4.75702655E-4
9.35262000E+5	1.23498370E+3	3.00000000E+0	1.50000000E+1	1.64883276E-5	1.14829584E-5	3.37144355E-5	2.71411183E-5	8.88268398E-5	4.75009838E-4
9.37798000E+5	1.23999051E+3	3.00000000E+0	1.50000000E+1	1.66692962E-5	1.15057601E-5	3.36486380E-5	2.74028185E-5	8.92265128E-5	4.77147127E-4
9.40326000E+5	1.24499556E+3	3.00000000E+0	1.50000000E+1	1.64617856E-5	1.15371599E-5	3.36710970E-5	2.72350970E-5	8.89051394E-5	4.75428553E-4
9.43540000E+5	1.24999320E+3	3.00000000E+0	1.50000000E+1	1.66525175E-5	1.14818408E-5	3.36396704E-5	2.72208008E-5	8.89948295E-5	4.75908179E-4
9.46047000E+5	1.25498614E+3	3.00000000E+0	1.50000000E+1	1.63894256E-5	1.15005656E-5	3.36570214E-5	2.73136380E-5	8.88606505E-5	4.75190645E-4
9.48584000E+5	1.26000401E+3	3.00000000E+0	1.50000000E+1	1.65108879E-5	1.15113272E-5	3.37530623E-5	2.73726883E-5	8.91479658E-5	4.76727090E-4
9.51128000E+5	1.26498092E+3	3.00000000E+0	1.50000000E+1	1.65448983E-5	1.14840164E-5	3.38401179E-5	2.72826972E-5	8.91517298E-5	4.76747218E-4
9.53741000E+5	1.26999730E+3	3.00000000E+0	1.50000000E+1	1.64908041E-5	1.15271284E-5	3.36658607E-5	2.73173335E-5	8.90011268E-5	4.75941854E-4
9.56293000E+5	1.27498299E+3	3.00000000E+0	1.50000000E+1	1.66046341E-5	1.14769204E-5	3.37757985E-5	2.73824486E-5	8.92398017E-5	4.77218191E-4
9.58821000E+5	1.28000478E+3	3.00000000E+0	1.50000000E+1	1.64810618E-5	1.14973320E-5	3.37873112E-5	2.71743837E-5	8.89400886E-5	4.75615447E-4
9.61340000E+5	1.28498565E+3	3.00000000E+0	1.50000000E+1	1.65360947E-5	1.14013805E-5	3.37692748E-5	2.71877798E-5	8.88945298E-5	4.75371817E-4
9.63849000E+5	1.28999695E+3	3.00000000E+0	1.50000000E+1	1.66901996E-5	1.15282818E-5	3.37247293E-5	2.73671928E-5	8.93104034E-5	4.77595740E-4
9.66360000E+5	1.29498897E+3	3.00000000E+0	1.50000000E+1	1.65754874E-5	1.14943071E-5	3.39592289E-5	2.73020449E-5	8.93310683E-5	4.77706248E-4
9.68895000E+5	1.29998168E+3	3.00000000E+0	1.50000000E+1	1.64369364E-5	1.14884211E-5	3.35419933E-5	2.72229167E-5	8.86902676E-5	4.74279506E-4
9.71419000E+5	1.30499739E+3	3.00000000E+0	1.50000000E+1	1.65584256E-5	1.15469142E-5	3.37319653E-5	2.73071262E-5	8.91444313E-5	4.76708189E-4
9.73931000E+5	1.30998983E+3	3.00000000E+0	1.50000000E+1	1.66057666E-5	1.14654108E-5	3.37337355E-5	2.72063884E-5	8.90113013E-5	4.75996264E-4
9.76477000E+5	1.31500482E+3	3.00000000E+0	1.50000000E+1	1.63947214E-5	1.14619299E-5	3.38094811E-5	2.72584828E-5	8.89246153E-5	4.75532702E-4
9.79006000E+5	1.31998186E+3	3.00000000E+0	1.50000000E+1	1.64990087E-5	1.15434273E-5	3.37844561E-5	2.72586050E-5	8.90854972E-5	4.76393033E-4
9.81543000E+5	1.32500140E+3	3.00000000E+0	1.50000000E+1	1.64572288E-5	1.15205719E-5	3.35686306E-5	2.71684411E-5	8.87148724E-5	4.74411083E-4
9.83936000E+5	1.32995347E+3	3.00000000E+0	1.50000000E+1	1.65642371E-5	1.14229901E-5	3.36814384E-5	2.71736535E-5	8.88423191E-5	4.75092616E-4
9.86318000E+5	1.33498146E+3	3.00000000E+0	1.50000000E+1	1.64490898E-5	1.14501907E-5	3.37448458E-5	2.71978142E-5	8.88419406E-5	4.75090592E-4
9.88875000E+5	1.34001990E+3	3.00000000E+0	1.50000000E+1	1.64863546E-5	1.14585532E-5	3.37790857E-5	2.71681609E-5	8.88921546E-5	4.75359115E-4
9.91383000E+5	1.34500966E+3	3.00000000E+0	1.50000000E+1	1.64647182E-5	1.14990874E-5	3.36816768E-5	2.70163717E-5	8.86618541E-5	4.74127562E-4
9.93918000E+5	1.34997958E+3	3.00000000E+0	1.50000000E+1	1.64809545E-5	1.15340187E-5	3.36810778E-5	2.70682427E-5	8.87642936E-5	4.74675367E-4
9.96478000E+5	1.35499154E+3	3.00000000E+0	1.50000000E+1	1.64361824E-5	1.14957406E-5	3.36103062E-5	2.71216008E-5	8.86638300E-5	4.74138128E-4
9.98901000E+5	1.35994917E+3	3.00000000E+0	1.50000000E+1	1.65966948E-5	1.14587827E-5	3.36042355E-5	2.72459152E-5	8.89056282E-5	4.75431167E-4
1.00142000E+6	1.36503399E+3	3.00000000E+0	1.50000000E+1	1.65676316E-5	1.15064784E-5	3.36744915E-5	2.73544702E-5	8.91030716E-5	4.76487014E-4
1.00384400E+6	1.36997611E+3	3.00000000E+0	1.50000000E+1	1.64393236E-5	1.15969821E-5	3.36755316E-5	2.71388980E-5	8.88507353E-5	4.75137622E-4
1.00625700E+6	1.37497601E+3	3.00000000E+0	1.50000000E+1	1.64237280E-5	1.15425690E-5	3.36357544E-5	2.70493540E-5	8.86514054E-5	4.74071687E-4
1.00867100E+6	1.37999325E+3	3.00000000E+0	1.50000000E+1	1.63601865E-5	1.14095612E-5	3.36641948E-5	2.72690120E-5	8.87029545E-5	4.74347350E-4
1.01105700E+6	1.38497703E+3	3.00000000E+0	1.50000000E+1	1.65284773E-5	1.14324315E-5	3.36320142E-5	2.71687749E-5	8.87616979E-5	4.74661486E-4
1.01356900E+6	1.39000019E+3	3.00000000E+0	1.50000000E+1	1.64504250E-5	1.15761532E-5	3.36204092E-5	2.73528459E-5	8.89998333E-5	4.75934938E-4
1.01609200E+6	1.39501344E+3	3.00000000E+0	1.50000000E+1	1.64928218E-5	1.15573569E-5	3.34208409E-5	2.71004411E-5	8.85714607E-5	4.73644175E-4
1.01850000E+6	1.39997593E+3	3.00000000E+0	1.50000000E+1	1.64848586E-5	1.14480449E-5	3.36494039E-5	2.72058728E-5	8.87881802E-5	4.74803103E-4
1.02102200E+6	1.40499751E+3	3.00000000E+0	1.50000000E+1	1.64542248E-5	1.14446117E-5	3.35501919E-5	2.71385791E-5	8.85876076E-5	4.73730522E-4
1.02343000E+6	1.40997302E+3	3.00000000E+0	1.50000000E+1	1.65579369E-5	1.15179642E-5	3.38535975E-5	2.73226681E-5	8.92521667E-5	4.77284314E-4
1.02583500E+6	1.41499042E+3	3.00000000E+0	1.50000000E+1	1.64745529E-5	1.15062966E-5	3.36591254E-5	2.72620055E-5	8.89019804E-5	4.75411660E-4
1.02824000E+6	1.41998594E+3	3.00000000E+0	1.50000000E+1	1.65905913E-5	1.14036335E-5	3.35994433E-5	2.71922859E-5	8.87859540E-5	4.74791198E-4
1.03065900E+6	1.42498472E+3	3.00000000E+0	1.50000000E+1	1.66074326E-5	1.14741190E-5	3.35931669E-5	2.71738681E-5	8.88485865E-5	4.75126131E-4
1.03306300E+6	1.43000094E+3	3.00000000E+0	1.50000000E+1	1.64882829E-5	1.15622355E-5	3.37082516E-5	2.74172905E-5	8.91760605E-5	4.76877329E-4
1.03546500E+6	1.43500034E+3	3.00000000E+0	1.50000000E+1	1.66201969E-5	1.14714100E-5	3.36022059E-5	2.73541155E-5	8.90479283E-5	4.76192130E-4
1.03785600E+6	1.43998048E+3	3.00000000E+0	1.50000000E+1	1.64651414E-5	1.14890440E-5	3.36105357E-5	2.70515385E-5	8.86162595E-5	4.73883741E-4
1.04025500E+6	1.44500366E+3	3.00000000E+0	1.50000000E+1	1.65974607E-5	1.14832892E-5	3.37123762E-5	2.70324113E-5	8.88255374E-5	4.75002874E-4
1.04266300E+6	1.44997691E+3	3.00000000E+0	1.50000000E+1	1.65201296E-5	1.15032180E-5	3.37650041E-5	2.73855391E-5	8.91738908E-5	4.76865726E-4
1.04504900E+6	1.45499285E+3	3.00000000E+0	1.50000000E+1	1.64466341E-5	1.14569976E-5	3.38571857E-5	2.71470460E-5	8.89078634E-5	4.75443120E-4
1.04744000E+6	1.45999137E+3	3.00000000E+0	1.50000000E+1	1.65407648E-5	1.14296361E-5	3.35820387E-5	2.73771557E-5	8.89295952E-5	4.75559333E-4
1.04984300E+6	1.46497641E+3	3.00000000E+0	1.50000000E+1	1.65062954E-5	1.14683940E-5	3.36039494E-5	2.70849677E-5	8.86636065E-5	4.74136933E-4
1.05223200E+6	1.47001650E+3	3.00000000E+0	1.50000000E+1	1.65845712E-5	1.15178927E-5	3.38365327E-5	2.73433569E-5	8.92823534E-5	4.77445740E-4
1.05461800E+6	1.47497366E+3	3.00000000E+0	1.50000000E+1	1.65602972E-5	1.14624812E-5	3.38282596E-5	2.70763608E-5	8.89273988E-5	4.75547587E-4
1.05703000E+6	1.47999419E+3	3.00000000E+0	1.50000000E+1	1.64751490E-5	1.14650412E-5	3.35965733E-5	2.70541074E-5	8.85908709E-5	4.73747973E-4
1.05942600E+6	1.48498231E+3	3.00000000E+0	1.50000000E+1	1.65731033E-5	1.14692553E-5	3.37262373E-5	2.71960261E-5	8.89646219E-5	4.75746641E-4
1.06182100E+6	1.49003450E+3	3.00000000E+0	1.50000000E+1	1.66720142E-5	1.14815785E-5	3.37232302E-5	2.71373781E-5	8.90142010E-5	4.76011770E-4
1.06422500E+6	1.49496459E+3	3.00000000E+0	1.50000000E+1	1.64267679E-5	1.14204659E-5	3.36085807E-5	2.71521690E-5	8.86079834E-5	4.73839484E-4
1.06735100E+6	1.50000655E+3	3.00000000E+0	1.50000000E+1	1.64535244E-5	1.14463283E-5	3.35940312E-5	2.71497580E-5	8.86436419E-5	4.74030171E-4
