G:\BEAR_storage\User_Experiments\20220317_arneodo\Bpm\file(1)_bpm_0042.txt
Ring Energy (GeV): 2
Lifetime (hours): 15.5172
Scan beginning: 3/18/2022	8:48:29 PM
Ring current (mA): 292.92
Source position: x (mm): -0 x' (mrad): 0.002 y (mm): 0.003 y' (mrad): -0
Scan end: 3/18/2022	9:00:20 PM
Ring current (mA): 289.24
Source position: x (mm): -0.002 x' (mrad): 0.004 y (mm): 0.005 y' (mrad): -0.001

SCAN TYPE: PHOTON ENERGY VS VAR_1 VS VAR_2

FILE INFO: FILE INFO:

SCAN PARAMETERS
waiting time (ms): 0
Number of scans: 1
Current scan number: 1
DARK OFF 
PREDARK OFF 

SCAN PARAMETERS
Regions configuration: 
number of regions: 6
Mirror grating scan: on
Timed acquisition: off
Region 1:
Initial energy (eV): 40.000000
Final energy (eV): 72.000000
Delta energy (eV): 1.000000
Deviation angle choice: Higher order rejection
Deviation angle (°): NaN
Al filter
G1200 channel
range keithley B 20 nA
range keithley C 200 nA
range keithley A 20 nA
Var_1: PsiC 0.000000
Var_2: PhiM0.000000
Bias CEM (V): 0.000000
Bias Keithley B (V): -30.000000
Name region: 
Region 2:
Initial energy (eV): 70.000000
Final energy (eV): 102.000000
Delta energy (eV): 1.000000
Deviation angle choice: Higher order rejection
Deviation angle (°): NaN
Si filter
G1200 channel
range keithley B 20 nA
range keithley C 200 nA
range keithley A 20 nA
Var_1: PsiC 0.000000
Var_2: PhiM0.000000
Bias CEM (V): 0.000000
Bias Keithley B (V): -30.000000
Name region: 
Region 3:
Initial energy (eV): 98.000000
Final energy (eV): 260.000000
Delta energy (eV): 1.000000
Deviation angle choice: Higher order rejection
Deviation angle (°): NaN
Full Beam
G1200 channel
range keithley B 20 nA
range keithley C 200 nA
range keithley A 200 nA
Var_1: PsiC 0.000000
Var_2: PhiM0.000000
Bias CEM (V): 0.000000
Bias Keithley B (V): -30.000000
Name region: 
Region 4:
Initial energy (eV): 255.000000
Final energy (eV): 320.000000
Delta energy (eV): 1.000000
Deviation angle choice: Higher order rejection
Deviation angle (°): NaN
filter Ag 0.6 um
G1200 channel
range keithley B 200 pA
range keithley C 200 nA
range keithley A 200 pA
Var_1: PsiC 0.000000
Var_2: PhiM0.000000
Bias CEM (V): 0.000000
Bias Keithley B (V): -30.000000
Name region: 
Region 5:
Initial energy (eV): 315.000000
Final energy (eV): 1200.000000
Delta energy (eV): 5.000000
Deviation angle choice: Higher order rejection
Deviation angle (°): NaN
Full Beam
G1200 channel
range keithley B 20 nA
range keithley C 200 nA
range keithley A 20 nA
Var_1: PsiC 0.000000
Var_2: PhiM0.000000
Bias CEM (V): 0.000000
Bias Keithley B (V): -30.000000
Name region: 
Region 6:
Initial energy (eV): 1190.000000
Final energy (eV): 1500.000000
Delta energy (eV): 5.000000
Deviation angle choice: Higher order rejection
Deviation angle (°): NaN
filter Ag 0.6 um
G1200 channel
range keithley B 200 pA
range keithley C 200 nA
range keithley A 200 pA
Var_1: PsiC 0.000000
Var_2: PhiM0.000000
Bias CEM (V): 0.000000
Bias Keithley B (V): -30.000000
Name region: 

BEAR MONOCHROMATOR CONFIGURATION: 
Current Grating Position:     -173638.30
Current Mirror Position: 2557.4
Current Grating: G1200
P2 phiz position:  0.0000
Mono axis position: 25.0000
Current Photon Energy (eV): 78.757
Current Deviation Angle: 155.000
Vertical Exit Slits (um): 450.000
Exit slit y axis position: 2.2375
Horizontal Exit Slits (um):  889.156
Exit slit z axis position: 1.9229
Mitutoyo position (mm): 

Dose on sample (mJ/cm^2): NaN

ENERGY CALIBRATION:
offset grating G1200: yes
Delta 0 order G1200:  -800.0
offset grating G1800: not
Delta 0 order G1800:  0.0
offset grating GNIM: not
Delta 0 order GNIM:  0.0
ZERO ORDER POSITIONS:
Grating G1200: Mirror position:  4938.0
Grating position: -105355.0
Grating G1800: 
Mirror position:  4938.0
Grating position: -106345.0
Grating GNIM: 
Mirror position:  10000.0
Grating position: 227300.0

Initial filter: Si filter

EXPERIMENTAL CHAMBER CONFIGURATION: 
PsiC (deg):   -0.000186
Phi Analyzer (degrees): 89.992308
Theta Manipulator (degrees): -44.000040
Theta Analyzer (degrees): -135.001468
PhiM (degrees): -0.004103
XM (mm): 0.000713
YM (mm): 19.932987
ZM (mm): (Warning: for kinetic energy scans, 
this parameter is given in the scan settings) 
-6.601438
TiltM (°): 0.000138

ELECTRON ANALYZER CONFIGURATION: 
Current Kinetik energy (eV): 35.0
Mode: DE = COST
Pass Energy (eV):  50.000
CEM: ON
Bias Front-Back CEM (V): 3499.561
Bias Back-Collector CEM (V): 100.874
Bias Retard-Front CEM: 100.087COIL VALUES
Ix (amps):2.820
Iy (amps): 6.789
Iz (amps): 37.337

POLARIZATION SELECTOR CONFIGURATION:
Psi1 (rad): -0.001665535
Psi2 (rad): 0.001417093
Z min position (mm): 46.599650
DZ position (mm): 18.599100
Zmin 0 (mm): 66.500000
DZ0 (mm): 53.000000

BEAM SELECTOR CONFIGURATION:
Zmin position (mm): NaN
DZ position (mm): NaN
Y+ position (mm): NaN
Y- position (mm): NaN

CHANNEL ELECTRON MULTIPLIER CONFIGURATION:
CEM configured: OFF
Bias CEM: 0.000000

FLUORESCENCE DETECTOR CONFIGURATION:
Not configured

LUMINESCENCE MONOCHROMATOR CONFIGURATION:
Optical fiber position (mm): 0.000000
Optical fiber Switch inside: OFF
Optical fiber Switch outside: ON
Monochromator wavelength (A): 0.000000
Limit Switches: ON

I0 MONITOR PARAMETERS:
I0 detector position(mm): -0.000000E+0
Lower switch: OFF
Upper switch: OFF
Valve status:open

PRESSURE PARAMETERS:
Monitor chamber pressure (mbar): 8.951e-10
Experimental chamber pressure -ION GAUGE-(mbar): 0.000000E+0

XMCD PARAMETERS:
Xmcd OFF
Xmcd Direction -
Xmcd current (A): 0.000000

Gated scan off

Instrument 1: AMMETER KEITHLEY 6517A B
Measure type: Current
range type: set range value
range value (ampere):  200 pA
Integration time:  set NPLC value
NPLC value: 10.000
Digital filter count: 2
SAMPLE BIAS (V): -30.000
Vsource: ON
Output Voltage value: 30.000
Vsource range: 1000 V

Range Keithley B changed to 20 nA

Range Keithley B changed to 200 pA

Range Keithley B changed to 20 nA

Range Keithley B changed to 200 pA

Range Keithley B changed to 20 nA

Range Keithley B changed to 200 pA

Range Keithley B changed to 20 nA

Range Keithley B changed to 200 nA

Range Keithley B changed to 200 pA

Range Keithley B changed to 20 nA

Range Keithley B changed to 200 pA

Range Keithley B changed to 20 nA

Range Keithley B changed to 200 pA

Range Keithley B changed to 20 nA

Range Keithley B changed to 200 pA

Range Keithley B changed to 20 nA

Range Keithley B changed to 200 pA

Range Keithley B changed to 20 nA

Range Keithley B changed to 200 pA

Range Keithley B changed to 20 nA

Instrument 2: AMMETER KEITHLEY 6517A A
Measure type: Current
range type: set range value
range value (ampere):  200 nA
Integration time:  set NPLC value
NPLC value: 10.000
Digital filter count: 2
Vsource: OFF
Output Voltage value: -0.000
Vsource range: 100 V
Trigger source: bus

Range Keithley A changed to 20 nA

Range Keithley A changed to 200 nA

Range Keithley A changed to 200 pA

Range Keithley A changed to 20 nA

Range Keithley A changed to 200 pA

Range Keithley A changed to 20 nA

Range Keithley A changed to 200 nA

Range Keithley A changed to 200 pA

Range Keithley A changed to 20 nA

Range Keithley A changed to 200 pA

Range Keithley A changed to 20 nA

Range Keithley A changed to 200 nA

Range Keithley A changed to 200 pA

Range Keithley A changed to 20 nA

Range Keithley A changed to 200 pA

Range Keithley A changed to 20 nA

Range Keithley A changed to 200 pA

Range Keithley A changed to 20 nA

Range Keithley A changed to 200 pA

Range Keithley A changed to 20 nA

Range Keithley A changed to 200 pA

Range Keithley A changed to 20 nA

Range Keithley A changed to 200 nA

Range Keithley A changed to 200 pA

Range Keithley A changed to 20 nA

Range Keithley A changed to 200 pA

Range Keithley A changed to 20 nA

Range Keithley A changed to 200 nA

Range Keithley A changed to 200 pA

Range Keithley A changed to 20 nA

Range Keithley A changed to 200 nA

Range Keithley A changed to 200 pA

Range Keithley A changed to 20 nA

Range Keithley A changed to 200 pA

Range Keithley A changed to 20 nA

Range Keithley A changed to 200 pA

Range Keithley A changed to 20 nA

Range Keithley A changed to 200 nA

Range Keithley A changed to 200 pA

Range Keithley A changed to 20 nA

Range Keithley A changed to 200 pA

Range Keithley A changed to 20 nA

Range Keithley A changed to 200 nA

Range Keithley A changed to 20 nA

Range Keithley A changed to 200 nA

Range Keithley A changed to 200 pA

Range Keithley A changed to 20 nA

Range Keithley A changed to 200 nA

Instrument 3: AMMETER KEITHLEY 6517A C 
Measure type: Current
range type: set range value
range value (ampere):  200 uA
Integration time:  set NPLC value
NPLC value: 10.000
Digital filter count: 2
Vsource: OFF
Output Voltage value: -0.000
Vsource range: 100 V
Trigger source: bus


Range Keithley C changed to 200 nA


________________________________________________________________________________

RelativeTime (msec)	Photon Energy	Var_1	Var_2	a) I_1 (Amps)	b) I_2 (Amps)	d) I_3 (Amps)	c) I_4 (Amps)	I_BPM_sum (Amps)	Delta Z(mm)	
________________________________________________________________________________

7.02700000E+3	3.99997182E+1	0.00000000E+0	0.00000000E+0	1.30571143E-5	9.21379438E-6	3.46783650E-5	2.81819496E-5	8.51312232E-5	4.55247183E-4
1.22220000E+4	4.09998833E+1	0.00000000E+0	0.00000000E+0	1.30317525E-5	9.13571526E-6	3.47132754E-5	2.82502923E-5	8.51310355E-5	4.55246179E-4
1.64370000E+4	4.19999914E+1	0.00000000E+0	0.00000000E+0	1.30189911E-5	9.16146149E-6	3.43286376E-5	2.80656669E-5	8.45747572E-5	4.52271429E-4
2.06360000E+4	4.30000736E+1	0.00000000E+0	0.00000000E+0	1.28874436E-5	9.13465430E-6	3.45400136E-5	2.81659666E-5	8.47280782E-5	4.53091327E-4
2.48640000E+4	4.39998685E+1	0.00000000E+0	0.00000000E+0	1.30209670E-5	9.21301952E-6	3.46170735E-5	2.80251000E-5	8.48761600E-5	4.53883209E-4
2.89560000E+4	4.49997945E+1	0.00000000E+0	0.00000000E+0	1.30297885E-5	9.22087541E-6	3.45661503E-5	2.81925056E-5	8.50093198E-5	4.54595293E-4
3.30230000E+4	4.60000615E+1	0.00000000E+0	0.00000000E+0	1.30510793E-5	9.20275261E-6	3.44413530E-5	2.80711386E-5	8.47663235E-5	4.53295848E-4
3.71010000E+4	4.69999999E+1	0.00000000E+0	0.00000000E+0	1.30318836E-5	9.14087703E-6	3.42667173E-5	2.80694846E-5	8.45089626E-5	4.51919586E-4
4.11710000E+4	4.80000110E+1	0.00000000E+0	0.00000000E+0	1.30207316E-5	9.17924156E-6	3.43219589E-5	2.82239560E-5	8.47458881E-5	4.53186567E-4
4.50920000E+4	4.89999023E+1	0.00000000E+0	0.00000000E+0	1.32288144E-5	9.21569576E-6	3.49071842E-5	2.81373087E-5	8.54890031E-5	4.57160444E-4
4.90110000E+4	4.99998503E+1	0.00000000E+0	0.00000000E+0	1.29614607E-5	9.26020852E-6	3.46018266E-5	2.81454954E-5	8.49689913E-5	4.54379632E-4
5.30390000E+4	5.10000363E+1	0.00000000E+0	0.00000000E+0	1.31206528E-5	9.18004622E-6	3.45026147E-5	2.81770770E-5	8.49803907E-5	4.54440592E-4
5.69360000E+4	5.20000085E+1	0.00000000E+0	0.00000000E+0	1.29903719E-5	9.27131585E-6	3.45417600E-5	2.81120364E-5	8.49154842E-5	4.54093498E-4
6.07510000E+4	5.29998177E+1	0.00000000E+0	0.00000000E+0	1.30497084E-5	9.13845410E-6	3.44494116E-5	2.79786054E-5	8.46161794E-5	4.52492938E-4
6.45200000E+4	5.40000709E+1	0.00000000E+0	0.00000000E+0	1.29745350E-5	9.21309998E-6	3.45370691E-5	2.81637076E-5	8.48884117E-5	4.53948726E-4
6.83320000E+4	5.49997938E+1	0.00000000E+0	0.00000000E+0	1.29748419E-5	9.15604939E-6	3.43280446E-5	2.82348786E-5	8.46938145E-5	4.52908099E-4
7.20950000E+4	5.60002526E+1	0.00000000E+0	0.00000000E+0	1.30596147E-5	9.15497651E-6	3.44051492E-5	2.81320665E-5	8.47518068E-5	4.53218218E-4
7.59550000E+4	5.69999203E+1	0.00000000E+0	0.00000000E+0	1.28829077E-5	9.17433312E-6	3.44949823E-5	2.78895471E-5	8.44417702E-5	4.51560269E-4
7.98430000E+4	5.79999099E+1	0.00000000E+0	0.00000000E+0	1.31012336E-5	9.18634941E-6	3.43854975E-5	2.82004181E-5	8.48734987E-5	4.53868977E-4
8.35110000E+4	5.89995795E+1	0.00000000E+0	0.00000000E+0	1.29828439E-5	9.23105588E-6	3.46096438E-5	2.82398287E-5	8.50633723E-5	4.54884344E-4
8.71930000E+4	6.00000302E+1	0.00000000E+0	0.00000000E+0	1.30704925E-5	9.26086417E-6	3.44310086E-5	2.81166736E-5	8.48790389E-5	4.53898604E-4
9.09120000E+4	6.10003662E+1	0.00000000E+0	0.00000000E+0	1.28848836E-5	9.27133373E-6	3.44756108E-5	2.81368528E-5	8.47686809E-5	4.53308454E-4
9.45390000E+4	6.19998518E+1	0.00000000E+0	0.00000000E+0	1.28847793E-5	9.18215921E-6	3.45028412E-5	2.81694565E-5	8.47392362E-5	4.53150996E-4
9.82960000E+4	6.29998162E+1	0.00000000E+0	0.00000000E+0	1.30552158E-5	9.20921078E-6	3.43790751E-5	2.81400893E-5	8.47835910E-5	4.53388187E-4
1.02003000E+5	6.39999573E+1	0.00000000E+0	0.00000000E+0	1.29303799E-5	9.24913397E-6	3.44825279E-5	2.81307194E-5	8.47927612E-5	4.53437226E-4
1.05650000E+5	6.50000465E+1	0.00000000E+0	0.00000000E+0	1.28254727E-5	9.06162370E-6	3.44975215E-5	2.80386213E-5	8.44232392E-5	4.51461172E-4
1.09239000E+5	6.59998549E+1	0.00000000E+0	0.00000000E+0	1.29894689E-5	9.31658260E-6	3.47369682E-5	2.79626045E-5	8.50056243E-5	4.54575531E-4
1.12799000E+5	6.69998548E+1	0.00000000E+0	0.00000000E+0	1.29620031E-5	9.18408742E-6	3.44537597E-5	2.79585931E-5	8.45584434E-5	4.52184189E-4
1.16348000E+5	6.80000519E+1	0.00000000E+0	0.00000000E+0	1.30201147E-5	9.17844882E-6	3.46298587E-5	2.79849324E-5	8.48133546E-5	4.53547351E-4
1.19963000E+5	6.89999835E+1	0.00000000E+0	0.00000000E+0	1.29758046E-5	9.23969558E-6	3.43418818E-5	2.82346968E-5	8.47920787E-5	4.53433576E-4
1.23526000E+5	6.99998166E+1	0.00000000E+0	0.00000000E+0	1.30613194E-5	9.21088269E-6	3.45459264E-5	2.80570332E-5	8.48751616E-5	4.53877870E-4
1.27109000E+5	7.10001332E+1	0.00000000E+0	0.00000000E+0	1.31176905E-5	9.22345629E-6	3.44345253E-5	2.81687055E-5	8.49443775E-5	4.54248008E-4
1.30602000E+5	7.19998344E+1	0.00000000E+0	0.00000000E+0	1.30048559E-5	9.13447549E-6	3.44895404E-5	2.82342348E-5	8.48631066E-5	4.53813404E-4
1.42295000E+5	7.00008787E+1	0.00000000E+0	0.00000000E+0	1.30697713E-5	9.15935447E-6	3.44226252E-5	2.79180202E-5	8.45697712E-5	4.52244766E-4
1.46588000E+5	7.09989580E+1	0.00000000E+0	0.00000000E+0	1.30313382E-5	9.17140057E-6	3.46132677E-5	2.80404363E-5	8.48564428E-5	4.53777769E-4
1.50205000E+5	7.20000218E+1	0.00000000E+0	0.00000000E+0	1.29468576E-5	9.30335335E-6	3.43291383E-5	2.79806915E-5	8.45600408E-5	4.52192731E-4
1.53542000E+5	7.29995864E+1	0.00000000E+0	0.00000000E+0	1.31062523E-5	9.20277050E-6	3.42759143E-5	2.79640946E-5	8.45490318E-5	4.52133860E-4
1.56960000E+5	7.39999849E+1	0.00000000E+0	0.00000000E+0	1.31488398E-5	9.21870580E-6	3.42968147E-5	2.81750266E-5	8.48393869E-5	4.53686561E-4
1.60348000E+5	7.50001469E+1	0.00000000E+0	0.00000000E+0	1.30113558E-5	9.19906905E-6	3.45131617E-5	2.77834002E-5	8.45069867E-5	4.51909020E-4
1.63753000E+5	7.59998981E+1	0.00000000E+0	0.00000000E+0	1.28544048E-5	9.13169791E-6	3.43765091E-5	2.79845837E-5	8.43471955E-5	4.51054522E-4
1.67229000E+5	7.70000335E+1	0.00000000E+0	0.00000000E+0	1.29141644E-5	9.25292483E-6	3.43378376E-5	2.81245265E-5	8.46294534E-5	4.52563922E-4
1.70629000E+5	7.80002186E+1	0.00000000E+0	0.00000000E+0	1.28782973E-5	9.22318509E-6	3.46423369E-5	2.78550926E-5	8.45989120E-5	4.52400599E-4
1.74003000E+5	7.89997874E+1	0.00000000E+0	0.00000000E+0	1.28520862E-5	9.15025582E-6	3.44293129E-5	2.81752292E-5	8.46068841E-5	4.52443230E-4
1.77387000E+5	8.00001851E+1	0.00000000E+0	0.00000000E+0	1.30003706E-5	9.13964023E-6	3.44887626E-5	2.79875908E-5	8.46163642E-5	4.52493926E-4
1.80807000E+5	8.09998974E+1	0.00000000E+0	0.00000000E+0	1.29431740E-5	9.17725672E-6	3.43100469E-5	2.80576173E-5	8.44880950E-5	4.51807995E-4
1.84185000E+5	8.20001080E+1	0.00000000E+0	0.00000000E+0	1.28100053E-5	9.17058696E-6	3.43166988E-5	2.80312810E-5	8.43285721E-5	4.50954931E-4
1.87555000E+5	8.29991217E+1	0.00000000E+0	0.00000000E+0	1.29462854E-5	9.19394305E-6	3.46376699E-5	2.80050013E-5	8.47828996E-5	4.53384490E-4
1.90842000E+5	8.40001079E+1	0.00000000E+0	0.00000000E+0	1.29036710E-5	9.18687394E-6	3.46869301E-5	2.80451033E-5	8.48225784E-5	4.53596676E-4
1.94109000E+5	8.50003255E+1	0.00000000E+0	0.00000000E+0	1.29057304E-5	9.20087507E-6	3.44232690E-5	2.80218009E-5	8.45516753E-5	4.52147996E-4
1.97329000E+5	8.59998669E+1	0.00000000E+0	0.00000000E+0	1.28829524E-5	9.06076539E-6	3.45762562E-5	2.79592011E-5	8.44791751E-5	4.51760295E-4
2.00534000E+5	8.69996239E+1	0.00000000E+0	0.00000000E+0	1.29276500E-5	9.14479305E-6	3.43569588E-5	2.80159566E-5	8.44453584E-5	4.51579457E-4
2.04513000E+5	8.80003083E+1	0.00000000E+0	0.00000000E+0	1.29545287E-5	9.32368747E-6	3.43732458E-5	2.81897102E-5	8.48411721E-5	4.53696107E-4
2.07851000E+5	8.89999245E+1	0.00000000E+0	0.00000000E+0	1.32081465E-5	9.27665642E-6	3.43629163E-5	2.82353971E-5	8.50831163E-5	4.54989927E-4
2.11174000E+5	9.00000001E+1	0.00000000E+0	0.00000000E+0	1.27871082E-5	9.17579045E-6	3.46580666E-5	2.81984512E-5	8.48194164E-5	4.53579767E-4
2.14403000E+5	9.09994660E+1	0.00000000E+0	0.00000000E+0	1.28452108E-5	9.13061012E-6	3.44049882E-5	2.80756626E-5	8.44564717E-5	4.51638886E-4
2.17703000E+5	9.20003597E+1	0.00000000E+0	0.00000000E+0	1.29904345E-5	9.15604343E-6	3.44171207E-5	2.80307326E-5	8.45943313E-5	4.52376103E-4
2.20948000E+5	9.29999900E+1	0.00000000E+0	0.00000000E+0	1.29137025E-5	9.11912729E-6	3.43879562E-5	2.80239466E-5	8.44447326E-5	4.51576110E-4
2.24247000E+5	9.39994641E+1	0.00000000E+0	0.00000000E+0	1.29341051E-5	9.17711665E-6	3.41891449E-5	2.78448138E-5	8.41451805E-5	4.49974227E-4
2.27525000E+5	9.50003760E+1	0.00000000E+0	0.00000000E+0	1.29752979E-5	9.11722590E-6	3.44292205E-5	2.81120095E-5	8.46337539E-5	4.52586919E-4
2.30754000E+5	9.59997635E+1	0.00000000E+0	0.00000000E+0	1.27976999E-5	9.19056644E-6	3.41535907E-5	2.81183574E-5	8.42602145E-5	4.50589382E-4
2.33969000E+5	9.69998168E+1	0.00000000E+0	0.00000000E+0	1.29535720E-5	9.13306882E-6	3.43158942E-5	2.81767611E-5	8.45792961E-5	4.52295701E-4
2.37148000E+5	9.80001029E+1	0.00000000E+0	0.00000000E+0	1.28366754E-5	9.18029358E-6	3.43010198E-5	2.80041877E-5	8.43221765E-5	4.50920730E-4
2.40343000E+5	9.89997921E+1	0.00000000E+0	0.00000000E+0	1.28806398E-5	9.24408248E-6	3.43626451E-5	2.81922374E-5	8.46796047E-5	4.52832111E-4
2.43488000E+5	1.00000181E+2	0.00000000E+0	0.00000000E+0	1.28365294E-5	9.20164099E-6	3.42447173E-5	2.81090770E-5	8.43919646E-5	4.51293928E-4
2.46636000E+5	1.00999480E+2	0.00000000E+0	0.00000000E+0	1.30329326E-5	9.12428607E-6	3.43776982E-5	2.80236427E-5	8.45585596E-5	4.52184811E-4
2.49816000E+5	1.02000293E+2	0.00000000E+0	0.00000000E+0	1.29533515E-5	9.17758157E-6	3.44641220E-5	2.80630622E-5	8.46581173E-5	4.52717205E-4
2.59791000E+5	9.80008599E+1	0.00000000E+0	0.00000000E+0	1.29531220E-5	9.16855743E-6	3.42772048E-5	2.79708270E-5	8.43697112E-5	4.51174926E-4
2.63704000E+5	9.89986153E+1	0.00000000E+0	0.00000000E+0	1.29089281E-5	9.20124164E-6	3.42637282E-5	2.77238491E-5	8.40977471E-5	4.49720573E-4
2.66874000E+5	1.00000378E+2	0.00000000E+0	0.00000000E+0	1.30935834E-5	9.18491592E-6	3.44129901E-5	2.80011687E-5	8.46926581E-5	4.52901915E-4
2.69935000E+5	1.00999480E+2	0.00000000E+0	0.00000000E+0	1.28563837E-5	9.11562253E-6	3.41229479E-5	2.80071918E-5	8.41021459E-5	4.49744096E-4
2.73049000E+5	1.02000293E+2	0.00000000E+0	0.00000000E+0	1.29327313E-5	9.18177178E-6	3.44953161E-5	2.79222164E-5	8.45320355E-5	4.52042971E-4
2.76184000E+5	1.03000229E+2	0.00000000E+0	0.00000000E+0	1.29409478E-5	9.19658055E-6	3.44089579E-5	2.80381743E-5	8.45846605E-5	4.52324388E-4
2.79402000E+5	1.03999287E+2	0.00000000E+0	0.00000000E+0	1.27339319E-5	9.17442252E-6	3.43690317E-5	2.82234762E-5	8.45008623E-5	4.51876269E-4
2.82459000E+5	1.04999881E+2	0.00000000E+0	0.00000000E+0	1.28951177E-5	9.15376355E-6	3.43346875E-5	2.78734598E-5	8.42570286E-5	4.50572346E-4
2.85684000E+5	1.06000206E+2	0.00000000E+0	0.00000000E+0	1.30971418E-5	9.22749153E-6	3.45760834E-5	2.79875252E-5	8.48882419E-5	4.53947818E-4
2.88900000E+5	1.06999917E+2	0.00000000E+0	0.00000000E+0	1.28064797E-5	9.18258240E-6	3.44414245E-5	2.81772289E-5	8.46077156E-5	4.52447677E-4
2.92107000E+5	1.07999814E+2	0.00000000E+0	0.00000000E+0	1.28660039E-5	9.12275125E-6	3.42163335E-5	2.81290326E-5	8.43341213E-5	4.50984606E-4
2.95175000E+5	1.08999375E+2	0.00000000E+0	0.00000000E+0	1.29661337E-5	9.22944060E-6	3.44175857E-5	2.81702045E-5	8.47833645E-5	4.53386976E-4
2.98315000E+5	1.10000679E+2	0.00000000E+0	0.00000000E+0	1.29876152E-5	9.20435300E-6	3.45277738E-5	2.81003300E-5	8.48200720E-5	4.53583273E-4
3.01370000E+5	1.10999180E+2	0.00000000E+0	0.00000000E+0	1.29567668E-5	9.14436986E-6	3.40165685E-5	2.80609045E-5	8.41786098E-5	4.50152993E-4
3.04460000E+5	1.12000153E+2	0.00000000E+0	0.00000000E+0	1.29185990E-5	9.17545070E-6	3.43370091E-5	2.79405001E-5	8.43715589E-5	4.51184807E-4
3.07525000E+5	1.12998456E+2	0.00000000E+0	0.00000000E+0	1.28493563E-5	9.10582055E-6	3.41137927E-5	2.81969819E-5	8.42659514E-5	4.50620061E-4
3.10484000E+5	1.14001141E+2	0.00000000E+0	0.00000000E+0	1.29992083E-5	9.25302616E-6	3.45293980E-5	2.81253729E-5	8.49070054E-5	4.54048157E-4
3.13529000E+5	1.14999624E+2	0.00000000E+0	0.00000000E+0	1.29781440E-5	9.15141811E-6	3.43506526E-5	2.77621004E-5	8.42423152E-5	4.50493664E-4
3.16552000E+5	1.16000105E+2	0.00000000E+0	0.00000000E+0	1.29000858E-5	9.13271119E-6	3.41320585E-5	2.79811416E-5	8.41459971E-5	4.49978594E-4
3.19539000E+5	1.16999532E+2	0.00000000E+0	0.00000000E+0	1.28794775E-5	9.21303740E-6	3.41808390E-5	2.81116042E-5	8.43849581E-5	4.51256460E-4
3.22591000E+5	1.17999592E+2	0.00000000E+0	0.00000000E+0	1.28744588E-5	9.13815011E-6	3.47739827E-5	2.79814992E-5	8.47680908E-5	4.53305298E-4
3.25715000E+5	1.18999870E+2	0.00000000E+0	0.00000000E+0	1.28040597E-5	9.20691004E-6	3.44804239E-5	2.82050584E-5	8.46964520E-5	4.52922203E-4
3.28680000E+5	1.20000491E+2	0.00000000E+0	0.00000000E+0	1.28376171E-5	9.09323801E-6	3.42839192E-5	2.78245691E-5	8.40393435E-5	4.49408254E-4
3.31651000E+5	1.20999938E+2	0.00000000E+0	0.00000000E+0	1.29187093E-5	9.19396391E-6	3.44251942E-5	2.79425058E-5	8.44803732E-5	4.51766702E-4
3.34645000E+5	1.21999728E+2	0.00000000E+0	0.00000000E+0	1.28953830E-5	9.04296744E-6	3.43408924E-5	2.78597627E-5	8.41390054E-5	4.49941206E-4
3.37580000E+5	1.22999780E+2	0.00000000E+0	0.00000000E+0	1.28147826E-5	9.16776468E-6	3.43865436E-5	2.80933950E-5	8.44624858E-5	4.51671047E-4
3.40587000E+5	1.23999998E+2	0.00000000E+0	0.00000000E+0	1.28303662E-5	9.14017965E-6	3.44044965E-5	2.78330270E-5	8.42080693E-5	4.50310531E-4
3.43597000E+5	1.24999989E+2	0.00000000E+0	0.00000000E+0	1.28644124E-5	9.17804947E-6	3.43714397E-5	2.79010001E-5	8.43149017E-5	4.50881828E-4
3.46542000E+5	1.25999047E+2	0.00000000E+0	0.00000000E+0	1.30133346E-5	9.13474669E-6	3.45067632E-5	2.79729906E-5	8.46278351E-5	4.52555268E-4
3.49604000E+5	1.27000184E+2	0.00000000E+0	0.00000000E+0	1.28992126E-5	9.19493546E-6	3.42670571E-5	2.78070870E-5	8.41682922E-5	4.50097819E-4
3.52507000E+5	1.27997679E+2	0.00000000E+0	0.00000000E+0	1.29470930E-5	9.21590438E-6	3.42392694E-5	2.80343089E-5	8.44365757E-5	4.51532490E-4
3.55417000E+5	1.29001785E+2	0.00000000E+0	0.00000000E+0	1.28719345E-5	9.16384568E-6	3.44106685E-5	2.80859593E-5	8.45324081E-5	4.52044963E-4
3.58343000E+5	1.29999801E+2	0.00000000E+0	0.00000000E+0	1.29199073E-5	9.13968493E-6	3.43297254E-5	2.80828509E-5	8.44721686E-5	4.51722827E-4
3.61188000E+5	1.30999466E+2	0.00000000E+0	0.00000000E+0	1.28256157E-5	9.17340924E-6	3.42766862E-5	2.79245261E-5	8.42002373E-5	4.50268649E-4
3.64059000E+5	1.32000594E+2	0.00000000E+0	0.00000000E+0	1.29324094E-5	9.09278501E-6	3.42539232E-5	2.80242924E-5	8.43034100E-5	4.50820374E-4
3.67745000E+5	1.33000044E+2	0.00000000E+0	0.00000000E+0	1.28084883E-5	9.12921239E-6	3.44603669E-5	2.81791512E-5	8.45772188E-5	4.52284593E-4
3.70632000E+5	1.33999881E+2	0.00000000E+0	0.00000000E+0	1.28947571E-5	9.25034395E-6	3.45719379E-5	2.81075839E-5	8.48246228E-5	4.53607609E-4
3.73469000E+5	1.35000138E+2	0.00000000E+0	0.00000000E+0	1.28074274E-5	9.18606331E-6	3.41572772E-5	2.80720208E-5	8.42227887E-5	4.50389244E-4
3.76341000E+5	1.36000861E+2	0.00000000E+0	0.00000000E+0	1.29746274E-5	9.12884285E-6	3.43167406E-5	2.78888378E-5	8.43090486E-5	4.50850527E-4
3.79249000E+5	1.36999145E+2	0.00000000E+0	0.00000000E+0	1.27959535E-5	9.11585201E-6	3.42033814E-5	2.78002176E-5	8.39154045E-5	4.48745479E-4
3.82170000E+5	1.37999808E+2	0.00000000E+0	0.00000000E+0	1.29862652E-5	9.13876106E-6	3.42793148E-5	2.80595694E-5	8.44639104E-5	4.51678665E-4
3.85049000E+5	1.39001489E+2	0.00000000E+0	0.00000000E+0	1.29864857E-5	9.12106146E-6	3.44181310E-5	2.81014714E-5	8.46271497E-5	4.52551602E-4
3.87987000E+5	1.39999648E+2	0.00000000E+0	0.00000000E+0	1.29956470E-5	9.18838193E-6	3.46092951E-5	2.79394153E-5	8.47327393E-5	4.53116253E-4
3.90897000E+5	1.40998955E+2	0.00000000E+0	0.00000000E+0	1.29910961E-5	9.19101348E-6	3.42841636E-5	2.80661348E-5	8.45324081E-5	4.52044963E-4
3.93804000E+5	1.42000694E+2	0.00000000E+0	0.00000000E+0	1.27603248E-5	9.16352977E-6	3.43827408E-5	2.77207676E-5	8.40273629E-5	4.49344187E-4
3.96680000E+5	1.43000246E+2	0.00000000E+0	0.00000000E+0	1.27834633E-5	9.11546458E-6	3.43334537E-5	2.79026691E-5	8.41350507E-5	4.49920057E-4
3.99580000E+5	1.43999666E+2	0.00000000E+0	0.00000000E+0	1.28384129E-5	9.17913129E-6	3.46310836E-5	2.79822264E-5	8.46308541E-5	4.52571412E-4
4.02510000E+5	1.44999896E+2	0.00000000E+0	0.00000000E+0	1.29227326E-5	9.11117007E-6	3.39638959E-5	2.81002287E-5	8.40980272E-5	4.49722071E-4
4.05400000E+5	1.46000268E+2	0.00000000E+0	0.00000000E+0	1.27528891E-5	9.11493112E-6	3.43121719E-5	2.81949971E-5	8.43749892E-5	4.51203151E-4
4.08217000E+5	1.46999169E+2	0.00000000E+0	0.00000000E+0	1.29575566E-5	9.17370429E-6	3.45769268E-5	2.80506436E-5	8.47588312E-5	4.53255782E-4
4.11106000E+5	1.48000650E+2	0.00000000E+0	0.00000000E+0	1.29061744E-5	9.20089295E-6	3.43781929E-5	2.80098948E-5	8.44951552E-5	4.51845749E-4
4.13993000E+5	1.48999231E+2	0.00000000E+0	0.00000000E+0	1.30410121E-5	9.18787231E-6	3.45794004E-5	2.80882958E-5	8.48965806E-5	4.53992409E-4
4.16978000E+5	1.49998532E+2	0.00000000E+0	0.00000000E+0	1.28336922E-5	9.16833987E-6	3.43140762E-5	2.80048076E-5	8.43209159E-5	4.50913989E-4
4.20519000E+5	1.50973848E+2	0.00000000E+0	0.00000000E+0	1.28135100E-5	9.15411820E-6	3.42746209E-5	2.75905582E-5	8.38328074E-5	4.48303783E-4
4.24116000E+5	1.52020597E+2	0.00000000E+0	0.00000000E+0	1.27262160E-5	9.08876170E-6	3.45231872E-5	2.80335370E-5	8.43717020E-5	4.51185572E-4
4.27656000E+5	1.53002947E+2	0.00000000E+0	0.00000000E+0	1.29945711E-5	9.11524702E-6	3.41650706E-5	2.78870973E-5	8.41619860E-5	4.50064096E-4
4.31222000E+5	1.54003163E+2	0.00000000E+0	0.00000000E+0	1.27647564E-5	9.17331090E-6	3.41950368E-5	2.79110942E-5	8.40441983E-5	4.49434215E-4
4.34690000E+5	1.54999538E+2	0.00000000E+0	0.00000000E+0	1.27395138E-5	9.05964781E-6	3.42309665E-5	2.78605256E-5	8.38906537E-5	4.48613121E-4
4.38203000E+5	1.55999722E+2	0.00000000E+0	0.00000000E+0	1.28450498E-5	9.11253501E-6	3.43013715E-5	2.80375335E-5	8.42964899E-5	4.50783368E-4
4.41834000E+5	1.56997480E+2	0.00000000E+0	0.00000000E+0	1.29613564E-5	9.06000245E-6	3.44070058E-5	2.81616960E-5	8.45900607E-5	4.52353266E-4
4.45439000E+5	1.57998488E+2	0.00000000E+0	0.00000000E+0	1.27988950E-5	9.15316750E-6	3.40696018E-5	2.81981561E-5	8.42198204E-5	4.50373371E-4
4.48961000E+5	1.59000468E+2	0.00000000E+0	0.00000000E+0	1.29661367E-5	9.05748416E-6	3.43138616E-5	2.79069904E-5	8.42444729E-5	4.50505203E-4
4.52559000E+5	1.59992621E+2	0.00000000E+0	0.00000000E+0	1.29082844E-5	9.11216844E-6	3.43237709E-5	2.80267659E-5	8.43709897E-5	4.51181763E-4
4.56222000E+5	1.60994525E+2	0.00000000E+0	0.00000000E+0	1.28960684E-5	9.12165751E-6	3.41698806E-5	2.78391156E-5	8.40267222E-5	4.49340760E-4
4.59756000E+5	1.62002309E+2	0.00000000E+0	0.00000000E+0	1.27995894E-5	9.15863325E-6	3.43480032E-5	2.80050251E-5	8.43112510E-5	4.50862305E-4
4.63272000E+5	1.63004899E+2	0.00000000E+0	0.00000000E+0	1.29582897E-5	9.11544968E-6	3.42245262E-5	2.78613064E-5	8.41595720E-5	4.50051187E-4
4.66837000E+5	1.64003444E+2	0.00000000E+0	0.00000000E+0	1.28207460E-5	9.11662985E-6	3.44734859E-5	2.79567722E-5	8.43676340E-5	4.51163818E-4
4.70433000E+5	1.65003405E+2	0.00000000E+0	0.00000000E+0	1.28218308E-5	9.12583281E-6	3.42137318E-5	2.79715869E-5	8.41329824E-5	4.49908997E-4
4.74021000E+5	1.66001712E+2	0.00000000E+0	0.00000000E+0	1.26867071E-5	9.14847662E-6	3.44167750E-5	2.79766295E-5	8.42285883E-5	4.50420258E-4
4.77654000E+5	1.66999626E+2	0.00000000E+0	0.00000000E+0	1.28793285E-5	9.14527883E-6	3.41677379E-5	2.77752224E-5	8.39675676E-5	4.49024425E-4
4.81164000E+5	1.67998979E+2	0.00000000E+0	0.00000000E+0	1.28472642E-5	9.07394994E-6	3.40603333E-5	2.78599891E-5	8.38415365E-5	4.48350463E-4
4.84696000E+5	1.68999007E+2	0.00000000E+0	0.00000000E+0	1.28348962E-5	9.16485002E-6	3.41063749E-5	2.77961108E-5	8.39022319E-5	4.48675037E-4
4.88233000E+5	1.69997591E+2	0.00000000E+0	0.00000000E+0	1.29152522E-5	9.09780670E-6	3.41668289E-5	2.78423104E-5	8.40221982E-5	4.49316568E-4
4.91803000E+5	1.70992988E+2	0.00000000E+0	0.00000000E+0	1.28653750E-5	9.18952038E-6	3.43501341E-5	2.78183255E-5	8.42233550E-5	4.50392273E-4
4.95329000E+5	1.71994187E+2	0.00000000E+0	0.00000000E+0	1.28771142E-5	9.09591426E-6	3.44584119E-5	2.79407117E-5	8.43721520E-5	4.51187979E-4
4.98944000E+5	1.73006234E+2	0.00000000E+0	0.00000000E+0	1.27583430E-5	9.11941339E-6	3.42344891E-5	2.79798034E-5	8.40920489E-5	4.49690101E-4
5.02501000E+5	1.74005045E+2	0.00000000E+0	0.00000000E+0	1.28099874E-5	9.08553411E-6	3.40494614E-5	2.80060384E-5	8.39510213E-5	4.48935943E-4
5.06129000E+5	1.75002764E+2	0.00000000E+0	0.00000000E+0	1.28209785E-5	9.16487386E-6	3.43408745E-5	2.77698222E-5	8.40965490E-5	4.49714166E-4
5.09644000E+5	1.76001696E+2	0.00000000E+0	0.00000000E+0	1.27490089E-5	9.19413080E-6	3.42699837E-5	2.80228559E-5	8.42359792E-5	4.50459782E-4
5.13151000E+5	1.76999557E+2	0.00000000E+0	0.00000000E+0	1.30396859E-5	9.14069225E-6	3.41453116E-5	2.79761318E-5	8.43018215E-5	4.50811880E-4
5.16694000E+5	1.77997171E+2	0.00000000E+0	0.00000000E+0	1.27720341E-5	9.11655833E-6	3.42197668E-5	2.79058967E-5	8.40142559E-5	4.49274096E-4
5.20320000E+5	1.78999184E+2	0.00000000E+0	0.00000000E+0	1.28271357E-5	9.18276419E-6	3.43866181E-5	2.79184613E-5	8.43149792E-5	4.50882242E-4
5.23906000E+5	1.79999208E+2	0.00000000E+0	0.00000000E+0	1.28842399E-5	9.10439600E-6	3.42839908E-5	2.78365526E-5	8.41091793E-5	4.49781707E-4
5.27494000E+5	1.80994569E+2	0.00000000E+0	0.00000000E+0	1.28046498E-5	9.19533482E-6	3.43839180E-5	2.79696379E-5	8.43535405E-5	4.51088452E-4
5.31033000E+5	1.81991956E+2	0.00000000E+0	0.00000000E+0	1.29119233E-5	9.18705871E-6	3.43061369E-5	2.80969862E-5	8.45021051E-5	4.51882915E-4
5.35314000E+5	1.83002725E+2	0.00000000E+0	0.00000000E+0	1.26905903E-5	9.18490698E-6	3.44664585E-5	2.79126171E-5	8.42545729E-5	4.50559213E-4
5.38953000E+5	1.84007000E+2	0.00000000E+0	0.00000000E+0	1.29496441E-5	9.16155090E-6	3.43340557E-5	2.78718117E-5	8.43170624E-5	4.50893382E-4
5.42540000E+5	1.85001909E+2	0.00000000E+0	0.00000000E+0	1.26926884E-5	9.16630735E-6	3.44849747E-5	2.79258076E-5	8.42697780E-5	4.50640524E-4
5.46090000E+5	1.86003726E+2	0.00000000E+0	0.00000000E+0	1.28009096E-5	9.09215022E-6	3.41895353E-5	2.79003713E-5	8.39829664E-5	4.49106772E-4
5.49627000E+5	1.87001848E+2	0.00000000E+0	0.00000000E+0	1.27792523E-5	9.19546297E-6	3.41719698E-5	2.79342536E-5	8.40809386E-5	4.49630688E-4
5.53231000E+5	1.88000763E+2	0.00000000E+0	0.00000000E+0	1.28362105E-5	9.09344364E-6	3.41562640E-5	2.77461145E-5	8.38320325E-5	4.48299639E-4
5.56821000E+5	1.88994350E+2	0.00000000E+0	0.00000000E+0	1.26860842E-5	9.11466886E-6	3.44099294E-5	2.78156522E-5	8.40263348E-5	4.49338689E-4
5.60427000E+5	1.89996121E+2	0.00000000E+0	0.00000000E+0	1.27956227E-5	9.15519406E-6	3.42244129E-5	2.79327962E-5	8.41080259E-5	4.49775540E-4
5.63960000E+5	1.91001184E+2	0.00000000E+0	0.00000000E+0	1.27408162E-5	9.10693516E-6	3.43410086E-5	2.78758082E-5	8.40645682E-5	4.49543145E-4
5.67519000E+5	1.91989411E+2	0.00000000E+0	0.00000000E+0	1.28165022E-5	9.13849880E-6	3.43838613E-5	2.77776453E-5	8.41165077E-5	4.49820897E-4
5.71105000E+5	1.92997480E+2	0.00000000E+0	0.00000000E+0	1.28358499E-5	9.12937333E-6	3.42081945E-5	2.80012581E-5	8.41746758E-5	4.50131956E-4
5.74664000E+5	1.94006250E+2	0.00000000E+0	0.00000000E+0	1.28312752E-5	9.13111080E-6	3.41375809E-5	2.80415688E-5	8.41415357E-5	4.49954736E-4
5.78247000E+5	1.95001813E+2	0.00000000E+0	0.00000000E+0	1.28344044E-5	9.06339694E-6	3.39219670E-5	2.79094580E-5	8.37292264E-5	4.47749874E-4
5.81871000E+5	1.96003027E+2	0.00000000E+0	0.00000000E+0	1.28478721E-5	9.07572020E-6	3.44253015E-5	2.77750078E-5	8.41239016E-5	4.49860436E-4
5.85424000E+5	1.97006478E+2	0.00000000E+0	0.00000000E+0	1.29088447E-5	9.03159190E-6	3.41980707E-5	2.78206680E-5	8.39591752E-5	4.48979547E-4
5.88981000E+5	1.97998462E+2	0.00000000E+0	0.00000000E+0	1.28500179E-5	9.13939287E-6	3.39307051E-5	2.77792010E-5	8.36993168E-5	4.47589930E-4
5.92499000E+5	1.98996511E+2	0.00000000E+0	0.00000000E+0	1.29317925E-5	9.13430263E-6	3.42689466E-5	2.79315237E-5	8.42665654E-5	4.50623344E-4
5.96095000E+5	1.99998423E+2	0.00000000E+0	0.00000000E+0	1.28092155E-5	9.08098031E-6	3.45847320E-5	2.78523359E-5	8.43272638E-5	4.50947935E-4
5.99618000E+5	2.00995979E+2	0.00000000E+0	0.00000000E+0	1.28491924E-5	9.13698186E-6	3.43536537E-5	2.77841214E-5	8.41239493E-5	4.49860691E-4
6.03163000E+5	2.01996242E+2	0.00000000E+0	0.00000000E+0	1.30159423E-5	9.07721628E-6	3.42990171E-5	2.79543076E-5	8.43464833E-5	4.51050713E-4
6.06649000E+5	2.02994054E+2	0.00000000E+0	0.00000000E+0	1.28523425E-5	9.05897725E-6	3.45953089E-5	2.77673576E-5	8.42739861E-5	4.50663027E-4
6.10220000E+5	2.04001079E+2	0.00000000E+0	0.00000000E+0	1.28136799E-5	9.18807199E-6	3.43538474E-5	2.78046611E-5	8.41602605E-5	4.50054869E-4
6.13767000E+5	2.05007553E+2	0.00000000E+0	0.00000000E+0	1.28131673E-5	9.05861366E-6	3.42367004E-5	2.79870692E-5	8.40955507E-5	4.49708827E-4
6.17347000E+5	2.06005651E+2	0.00000000E+0	0.00000000E+0	1.26982853E-5	9.14690306E-6	3.41703724E-5	2.79824409E-5	8.39980017E-5	4.49187175E-4
6.20945000E+5	2.07003433E+2	0.00000000E+0	0.00000000E+0	1.28050700E-5	9.16779449E-6	3.42611711E-5	2.79855016E-5	8.42195373E-5	4.50371857E-4
6.24597000E+5	2.08001586E+2	0.00000000E+0	0.00000000E+0	1.27827600E-5	9.11387612E-6	3.43949746E-5	2.78844330E-5	8.41760438E-5	4.50139271E-4
6.28217000E+5	2.08994867E+2	0.00000000E+0	0.00000000E+0	1.28571883E-5	9.00712717E-6	3.42593204E-5	2.77667883E-5	8.38904242E-5	4.48611894E-4
6.31765000E+5	2.10001264E+2	0.00000000E+0	0.00000000E+0	1.28796503E-5	9.16607489E-6	3.41620277E-5	2.80727778E-5	8.42805307E-5	4.50698025E-4
6.35358000E+5	2.10993698E+2	0.00000000E+0	0.00000000E+0	1.27840117E-5	9.15309300E-6	3.42760336E-5	2.78008584E-5	8.40139966E-5	4.49272709E-4
6.38892000E+5	2.11998433E+2	0.00000000E+0	0.00000000E+0	1.28127620E-5	9.04128361E-6	3.41853689E-5	2.78411690E-5	8.38805835E-5	4.48559270E-4
6.42509000E+5	2.12994370E+2	0.00000000E+0	0.00000000E+0	1.28251747E-5	9.15797760E-6	3.42254411E-5	2.79065553E-5	8.41151487E-5	4.49813629E-4
6.46136000E+5	2.13996277E+2	0.00000000E+0	0.00000000E+0	1.27425924E-5	9.07127965E-6	3.43702119E-5	2.78702471E-5	8.40543311E-5	4.49488401E-4
6.49649000E+5	2.15005792E+2	0.00000000E+0	0.00000000E+0	1.28988937E-5	9.05747522E-6	3.43679380E-5	2.78967622E-5	8.42210691E-5	4.50380049E-4
6.53182000E+5	2.16008883E+2	0.00000000E+0	0.00000000E+0	1.27705828E-5	9.06788815E-6	3.41104876E-5	2.77617279E-5	8.37106864E-5	4.47650729E-4
6.56827000E+5	2.17001487E+2	0.00000000E+0	0.00000000E+0	1.27663508E-5	9.02965773E-6	3.40574514E-5	2.79114816E-5	8.37649415E-5	4.47940864E-4
6.60293000E+5	2.18000578E+2	0.00000000E+0	0.00000000E+0	1.29882202E-5	9.13588514E-6	3.43708586E-5	2.79146526E-5	8.44096165E-5	4.51388324E-4
6.63831000E+5	2.19000753E+2	0.00000000E+0	0.00000000E+0	1.29308835E-5	9.08193100E-6	3.41250997E-5	2.79856477E-5	8.41235619E-5	4.49858620E-4
6.67409000E+5	2.19998676E+2	0.00000000E+0	0.00000000E+0	1.29405514E-5	9.12621428E-6	3.41501694E-5	2.80064795E-5	8.42234146E-5	4.50392591E-4
6.70947000E+5	2.20997281E+2	0.00000000E+0	0.00000000E+0	1.28425822E-5	8.98716557E-6	3.41027360E-5	2.76442978E-5	8.35767816E-5	4.46934661E-4
6.74521000E+5	2.21996264E+2	0.00000000E+0	0.00000000E+0	1.27120689E-5	9.09756530E-6	3.42783760E-5	2.77259621E-5	8.38139723E-5	4.48203061E-4
6.78101000E+5	2.22996282E+2	0.00000000E+0	0.00000000E+0	1.27078250E-5	9.07570232E-6	3.41575812E-5	2.78241697E-5	8.37652783E-5	4.47942665E-4
6.81642000E+5	2.23988599E+2	0.00000000E+0	0.00000000E+0	1.27304927E-5	9.12235190E-6	3.41798734E-5	2.76784930E-5	8.37112109E-5	4.47653534E-4
6.85197000E+5	2.25009396E+2	0.00000000E+0	0.00000000E+0	1.28631756E-5	9.14412548E-6	3.43730312E-5	2.77881387E-5	8.41684710E-5	4.50098775E-4
6.88793000E+5	2.26003825E+2	0.00000000E+0	0.00000000E+0	1.26595572E-5	9.13580169E-6	3.42471700E-5	2.78313402E-5	8.38738690E-5	4.48523364E-4
6.92312000E+5	2.27004574E+2	0.00000000E+0	0.00000000E+0	1.27667740E-5	9.09395624E-6	3.39455019E-5	2.78440568E-5	8.36502890E-5	4.47327749E-4
6.95899000E+5	2.28008124E+2	0.00000000E+0	0.00000000E+0	1.28488347E-5	9.01143062E-6	3.41900300E-5	2.80581299E-5	8.41084253E-5	4.49777675E-4
6.99511000E+5	2.28997559E+2	0.00000000E+0	0.00000000E+0	1.28403381E-5	9.04616225E-6	3.43622278E-5	2.79221240E-5	8.41708522E-5	4.50111509E-4
7.03192000E+5	2.29993920E+2	0.00000000E+0	0.00000000E+0	1.27664104E-5	9.04257703E-6	3.43674432E-5	2.80226204E-5	8.41990512E-5	4.50262306E-4
7.06805000E+5	2.30998663E+2	0.00000000E+0	0.00000000E+0	1.27474830E-5	9.11683549E-6	3.43052726E-5	2.79654089E-5	8.41350000E-5	4.49919786E-4
2.14748365E+9	2.32000000E+2	0.00000000E+0	0.00000000E+0	1.27341792E-5	8.99294722E-6	3.40619217E-5	2.78089974E-5	8.35980455E-5	4.47048372E-4
