G:\BEAR_storage\User_Experiments\20220317_arneodo\Bpm\file(1)_bpm_0052.txt
Ring Energy (GeV): 2
Lifetime (hours): 15.3747
Scan beginning: 3/19/2022	12:08:34 PM
Ring current (mA): 308.5
Source position: x (mm): -0.004 x' (mrad): 0.001 y (mm): 0.004 y' (mrad): 0.007
Scan end: 3/19/2022	12:25:01 PM
Ring current (mA): 309.06
Source position: x (mm): -0.004 x' (mrad): 0.002 y (mm): 0.005 y' (mrad): 0.007

SCAN TYPE: PHOTON ENERGY VS VAR_1 VS VAR_2

FILE INFO: FILE INFO:

SCAN PARAMETERS
waiting time (ms): 1000
Number of scans: 1
Current scan number: 1
DARK OFF 
PREDARK OFF 

SCAN PARAMETERS
Regions configuration: 
number of regions: 7
Mirror grating scan: on
Timed acquisition: off
Region 1:
Initial energy (eV): 3.000000
Final energy (eV): 4.500000
Delta energy (eV): 0.500000
Deviation angle choice: Degrees: 
Deviation angle (°): NaN
B270 window
GNIM channel
range keithley B 200 pA
range keithley C 2 uA
range keithley A 200 pA
Var_1: PsiC 0.000000
Var_2: PhiM0.000000
Bias CEM (V): 0.000000
Bias Keithley B (V): -30.000000
Name region: 
Region 2:
Initial energy (eV): 4.000000
Final energy (eV): 8.000000
Delta energy (eV): 0.500000
Deviation angle choice: Degrees: 
Deviation angle (°): NaN
SiO2 window
GNIM channel
range keithley B 200 pA
range keithley C 2 uA
range keithley A 200 pA
Var_1: PsiC 0.000000
Var_2: PhiM0.000000
Bias CEM (V): 0.000000
Bias Keithley B (V): -30.000000
Name region: 
Region 3:
Initial energy (eV): 7.000000
Final energy (eV): 12.000000
Delta energy (eV): 0.500000
Deviation angle choice: Degrees: 
Deviation angle (°): NaN
filter LiF window
GNIM channel
range keithley B 200 pA
range keithley C 2 uA
range keithley A 200 pA
Var_1: PsiC 0.000000
Var_2: PhiM0.000000
Bias CEM (V): 0.000000
Bias Keithley B (V): -30.000000
Name region: 
Region 4:
Initial energy (eV): 11.000000
Final energy (eV): 18.000000
Delta energy (eV): 0.500000
Deviation angle choice: Degrees: 
Deviation angle (°): NaN
In filter
GNIM channel
range keithley B 200 pA
range keithley C 2 uA
range keithley A 200 pA
Var_1: PsiC 0.000000
Var_2: PhiM0.000000
Bias CEM (V): 0.000000
Bias Keithley B (V): -30.000000
Name region: 
Region 5:
Initial energy (eV): 15.000000
Final energy (eV): 25.000000
Delta energy (eV): 0.500000
Deviation angle choice: Degrees: 
Deviation angle (°): NaN
Sn filter
GNIM channel
range keithley B 200 pA
range keithley C 2 uA
range keithley A 200 pA
Var_1: PsiC 0.000000
Var_2: PhiM0.000000
Bias CEM (V): 0.000000
Bias Keithley B (V): -30.000000
Name region: 
Region 6:
Initial energy (eV): 23.000000
Final energy (eV): 45.000000
Delta energy (eV): 0.500000
Deviation angle choice: Degrees: 
Deviation angle (°): NaN
Full Beam
GNIM channel
range keithley B 20 nA
range keithley C 2 uA
range keithley A 20 nA
Var_1: PsiC 0.000000
Var_2: PhiM0.000000
Bias CEM (V): 0.000000
Bias Keithley B (V): -30.000000
Name region: 
Region 7:
Initial energy (eV): 23.000000
Final energy (eV): 45.000000
Delta energy (eV): 0.500000
Deviation angle choice: Degrees: 
Deviation angle (°): NaN
Al filter
GNIM channel
range keithley B 20 nA
range keithley C 2 uA
range keithley A 20 nA
Var_1: PsiC 0.000000
Var_2: PhiM0.000000
Bias CEM (V): 0.000000
Bias Keithley B (V): -30.000000
Name region: 

BEAR MONOCHROMATOR CONFIGURATION: 
Current Grating Position:     -17509.20
Current Mirror Position: 10000.0
Current Grating: GNIM
P2 phiz position:  0.0664
Mono axis position: 73.5000
Current Photon Energy (eV): 5.000
Current Deviation Angle: 29.905
Vertical Exit Slits (um): 100.000
Exit slit y axis position: 1.3625
Horizontal Exit Slits (um):  889.156
Exit slit z axis position: 1.9229
Mitutoyo position (mm): 

Dose on sample (mJ/cm^2): NaN

ENERGY CALIBRATION:
offset grating G1200: yes
Delta 0 order G1200:  -800.0
offset grating G1800: not
Delta 0 order G1800:  0.0
offset grating GNIM: not
Delta 0 order GNIM:  0.0
ZERO ORDER POSITIONS:
Grating G1200: Mirror position:  4938.0
Grating position: -105355.0
Grating G1800: 
Mirror position:  4938.0
Grating position: -106345.0
Grating GNIM: 
Mirror position:  10000.0
Grating position: 227300.0

Initial filter: Ag filter 0.6 um

EXPERIMENTAL CHAMBER CONFIGURATION: 
PsiC (deg):   -0.000186
Phi Analyzer (degrees): 89.993255
Theta Manipulator (degrees): -44.000040
Theta Analyzer (degrees): -135.001450
PhiM (degrees): -0.004103
XM (mm): 0.000425
YM (mm): 19.932987
ZM (mm): (Warning: for kinetic energy scans, 
this parameter is given in the scan settings) 
-6.601438
TiltM (°): 0.000138

ELECTRON ANALYZER CONFIGURATION: 
Current Kinetik energy (eV): 35.0
Mode: DE = COST
Pass Energy (eV):  50.000
CEM: ON
Bias Front-Back CEM (V): 3499.561
Bias Back-Collector CEM (V): 100.874
Bias Retard-Front CEM: 100.087COIL VALUES
Ix (amps):2.820
Iy (amps): 6.789
Iz (amps): 37.337

POLARIZATION SELECTOR CONFIGURATION:
Psi1 (rad): -0.001665535
Psi2 (rad): 0.001417093
Z min position (mm): 46.599650
DZ position (mm): 18.599100
Zmin 0 (mm): 66.500000
DZ0 (mm): 53.000000

BEAM SELECTOR CONFIGURATION:
Zmin position (mm): NaN
DZ position (mm): NaN
Y+ position (mm): NaN
Y- position (mm): NaN

CHANNEL ELECTRON MULTIPLIER CONFIGURATION:
CEM configured: OFF
Bias CEM: 0.000000

FLUORESCENCE DETECTOR CONFIGURATION:
Not configured

LUMINESCENCE MONOCHROMATOR CONFIGURATION:
Optical fiber position (mm): 0.000000
Optical fiber Switch inside: OFF
Optical fiber Switch outside: ON
Monochromator wavelength (A): 0.000000
Limit Switches: ON

I0 MONITOR PARAMETERS:
I0 detector position(mm): -0.000000E+0
Lower switch: OFF
Upper switch: OFF
Valve status:open

PRESSURE PARAMETERS:
Monitor chamber pressure (mbar): 8.792e-10
Experimental chamber pressure -ION GAUGE-(mbar): 0.000000E+0

XMCD PARAMETERS:
Xmcd OFF
Xmcd Direction -
Xmcd current (A): 0.000000

Gated scan off

Instrument 1: AMMETER KEITHLEY 6517A B
Measure type: Current
range type: set range value
range value (ampere):  200 pA
Integration time:  set NPLC value
NPLC value: 10.000
Digital filter count: 2
SAMPLE BIAS (V): -30.000
Vsource: ON
Output Voltage value: 30.000
Vsource range: 1000 V

Range Keithley B changed to 20 nA

Range Keithley B changed to 200 pA

Range Keithley B changed to 20 nA

Range Keithley B changed to 200 pA

Range Keithley B changed to 20 nA

Range Keithley B changed to 200 pA

Range Keithley B changed to 20 nA

Range Keithley B changed to 200 nA

Range Keithley B changed to 200 pA

Range Keithley B changed to 20 nA

Range Keithley B changed to 200 pA

Range Keithley B changed to 20 nA

Range Keithley B changed to 200 pA

Range Keithley B changed to 20 nA

Range Keithley B changed to 200 pA

Range Keithley B changed to 20 nA

Range Keithley B changed to 200 pA

Range Keithley B changed to 20 nA

Range Keithley B changed to 200 pA

Range Keithley B changed to 20 nA

Range Keithley B changed to 200 pA

Range Keithley B changed to 20 nA

Range Keithley B changed to 200 pA

Range Keithley B changed to 20 nA

Range Keithley B changed to 200 pA

Range Keithley B changed to 20 nA

Range Keithley B changed to 200 pA

Range Keithley B changed to 20 nA

Range Keithley B changed to 200 pA

Range Keithley B changed to 20 nA

Range Keithley B changed to 200 pA

Range Keithley B changed to 20 nA

Range Keithley B changed to 200 pA

Range Keithley B changed to 20 nA

Range Keithley B changed to 200 pA

Range Keithley B changed to 20 nA

Range Keithley B changed to 200 pA

Range Keithley B changed to 20 nA

Instrument 2: AMMETER KEITHLEY 6517A A
Measure type: Current
range type: set range value
range value (ampere):  200 nA
Integration time:  set NPLC value
NPLC value: 10.000
Digital filter count: 2
Vsource: OFF
Output Voltage value: -0.000
Vsource range: 100 V
Trigger source: bus

Range Keithley A changed to 20 nA

Range Keithley A changed to 200 nA

Range Keithley A changed to 200 pA

Range Keithley A changed to 20 nA

Range Keithley A changed to 200 pA

Range Keithley A changed to 20 nA

Range Keithley A changed to 200 nA

Range Keithley A changed to 200 pA

Range Keithley A changed to 20 nA

Range Keithley A changed to 200 pA

Range Keithley A changed to 20 nA

Range Keithley A changed to 200 nA

Range Keithley A changed to 200 pA

Range Keithley A changed to 20 nA

Range Keithley A changed to 200 pA

Range Keithley A changed to 20 nA

Range Keithley A changed to 200 pA

Range Keithley A changed to 20 nA

Range Keithley A changed to 200 pA

Range Keithley A changed to 20 nA

Range Keithley A changed to 200 pA

Range Keithley A changed to 20 nA

Range Keithley A changed to 200 nA

Range Keithley A changed to 200 pA

Range Keithley A changed to 20 nA

Range Keithley A changed to 200 pA

Range Keithley A changed to 20 nA

Range Keithley A changed to 200 nA

Range Keithley A changed to 200 pA

Range Keithley A changed to 20 nA

Range Keithley A changed to 200 nA

Range Keithley A changed to 200 pA

Range Keithley A changed to 20 nA

Range Keithley A changed to 200 pA

Range Keithley A changed to 20 nA

Range Keithley A changed to 200 pA

Range Keithley A changed to 20 nA

Range Keithley A changed to 200 nA

Range Keithley A changed to 200 pA

Range Keithley A changed to 20 nA

Range Keithley A changed to 200 pA

Range Keithley A changed to 20 nA

Range Keithley A changed to 200 nA

Range Keithley A changed to 20 nA

Range Keithley A changed to 200 nA

Range Keithley A changed to 200 pA

Range Keithley A changed to 20 nA

Range Keithley A changed to 200 nA

Range Keithley A changed to 2 uA

Range Keithley A changed to 20 nA

Range Keithley A changed to 200 nA

Range Keithley A changed to 2 uA

Range Keithley A changed to 20 nA

Range Keithley A changed to 200 nA

Range Keithley A changed to 200 pA

Range Keithley A changed to 2 uA

Range Keithley A changed to 20 nA

Range Keithley A changed to 200 nA

Range Keithley A changed to 200 pA

Range Keithley A changed to 20 nA

Range Keithley A changed to 2 uA

Range Keithley A changed to 20 nA

Range Keithley A changed to 200 nA

Range Keithley A changed to 20 nA

Range Keithley A changed to 200 nA

Range Keithley A changed to 200 pA

Range Keithley A changed to 2 uA

Range Keithley A changed to 20 nA

Range Keithley A changed to 200 nA

Range Keithley A changed to 20 nA

Range Keithley A changed to 200 nA

Range Keithley A changed to 200 pA

Range Keithley A changed to 20 nA

Range Keithley A changed to 200 nA

Range Keithley A changed to 20 nA

Range Keithley A changed to 200 nA

Range Keithley A changed to 200 pA

Range Keithley A changed to 20 nA

Range Keithley A changed to 200 nA

Range Keithley A changed to 200 pA

Range Keithley A changed to 20 nA

Range Keithley A changed to 200 pA

Range Keithley A changed to 20 nA

Instrument 3: AMMETER KEITHLEY 6517A C 
Measure type: Current
range type: set range value
range value (ampere):  2 uA
Integration time:  set NPLC value
NPLC value: 10.000
Digital filter count: 2
Vsource: OFF
Output Voltage value: -0.000
Vsource range: 100 V
Trigger source: bus


Range Keithley C changed to 20 uA


Range Keithley C changed to 2 uA


Range Keithley C changed to 200 uA


Range Keithley C changed to 2 uA


Range Keithley C changed to 20 uA


Range Keithley C changed to 200 uA


Range Keithley C changed to 2 uA


Range Keithley C changed to 20 uA


Range Keithley C changed to 2 uA


Range Keithley C changed to 20 uA


Range Keithley C changed to 200 uA


Range Keithley C changed to 2 uA


Range Keithley C changed to 20 uA


Range Keithley C changed to 2 uA


Range Keithley C changed to 20 uA


Range Keithley C changed to 2 uA


Range Keithley C changed to 20 uA


Range Keithley C changed to 2 uA


________________________________________________________________________________

RelativeTime (msec)	Photon Energy	Var_1	Var_2	a) I_1 (Amps)	b) I_2 (Amps)	d) I_3 (Amps)	c) I_4 (Amps)	I_BPM_sum (Amps)	Delta Z(mm)	
________________________________________________________________________________

8.43500000E+3	2.99999572E+0	0.00000000E+0	0.00000000E+0	1.43427598E-5	1.02345389E-5	3.54992223E-5	2.87913655E-5	8.88678865E-5	4.75229340E-4
3.59300000E+4	3.49999838E+0	0.00000000E+0	0.00000000E+0	1.42940210E-5	1.01700229E-5	3.54494972E-5	2.88014446E-5	8.87149857E-5	4.74411688E-4
5.72820000E+4	3.99998991E+0	0.00000000E+0	0.00000000E+0	1.43907207E-5	1.01907295E-5	3.55991287E-5	2.88357143E-5	8.90162932E-5	4.76022958E-4
7.53640000E+4	4.49999667E+0	0.00000000E+0	0.00000000E+0	1.43496471E-5	1.01705474E-5	3.53877497E-5	2.88287912E-5	8.87367354E-5	4.74527997E-4
1.03714000E+5	4.00000037E+0	0.00000000E+0	0.00000000E+0	1.43493491E-5	1.02181775E-5	3.51715040E-5	2.88410370E-5	8.85800676E-5	4.73690201E-4
1.23223000E+5	4.49999502E+0	0.00000000E+0	0.00000000E+0	1.43473821E-5	1.02738840E-5	3.55206651E-5	2.88026963E-5	8.89446275E-5	4.75639719E-4
1.39287000E+5	4.99999009E+0	0.00000000E+0	0.00000000E+0	1.43263446E-5	1.02915538E-5	3.54664457E-5	2.87748103E-5	8.88591544E-5	4.75182644E-4
1.53599000E+5	5.49998070E+0	0.00000000E+0	0.00000000E+0	1.43928783E-5	1.02125776E-5	3.53992773E-5	2.88588677E-5	8.88636010E-5	4.75206422E-4
1.66714000E+5	6.00000410E+0	0.00000000E+0	0.00000000E+0	1.43640535E-5	1.02319610E-5	3.54425294E-5	2.88580154E-5	8.88965593E-5	4.75382670E-4
1.78886000E+5	6.50000221E+0	0.00000000E+0	0.00000000E+0	1.42210858E-5	1.02079821E-5	3.53324306E-5	2.88525437E-5	8.86140422E-5	4.73871884E-4
1.90270000E+5	6.99999197E+0	0.00000000E+0	0.00000000E+0	1.43911409E-5	1.02562023E-5	3.52893335E-5	2.87115906E-5	8.86482672E-5	4.74054905E-4
2.01105000E+5	7.50001671E+0	0.00000000E+0	0.00000000E+0	1.43353151E-5	1.02241111E-5	3.55727745E-5	2.87895893E-5	8.89217900E-5	4.75517594E-4
2.11458000E+5	7.99997096E+0	0.00000000E+0	0.00000000E+0	1.43318789E-5	1.01657641E-5	3.53746933E-5	2.87334983E-5	8.86058347E-5	4.73827993E-4
2.33341000E+5	6.99997596E+0	0.00000000E+0	0.00000000E+0	1.42107057E-5	1.01645452E-5	3.54317409E-5	2.87801419E-5	8.85871337E-5	4.73727988E-4
2.45724000E+5	7.49998454E+0	0.00000000E+0	0.00000000E+0	1.43551277E-5	1.01530743E-5	3.51024819E-5	2.89859240E-5	8.85966079E-5	4.73778652E-4
2.56163000E+5	7.99995527E+0	0.00000000E+0	0.00000000E+0	1.44725012E-5	1.02913601E-5	3.54436440E-5	2.87208889E-5	8.89283942E-5	4.75552910E-4
2.66161000E+5	8.49999054E+0	0.00000000E+0	0.00000000E+0	1.44834178E-5	1.02129978E-5	3.55743808E-5	2.89010529E-5	8.91718494E-5	4.76854810E-4
2.75707000E+5	9.00001190E+0	0.00000000E+0	0.00000000E+0	1.43773364E-5	1.03619439E-5	3.56926365E-5	2.88076167E-5	8.92395335E-5	4.77216756E-4
2.85233000E+5	9.49999960E+0	0.00000000E+0	0.00000000E+0	1.43766718E-5	1.02865500E-5	3.53961957E-5	2.90416216E-5	8.91010391E-5	4.76476145E-4
2.94445000E+5	9.99999084E+0	0.00000000E+0	0.00000000E+0	1.43913435E-5	1.01887834E-5	3.55948818E-5	2.87907307E-5	8.89657395E-5	4.75752618E-4
3.03622000E+5	1.05000018E+1	0.00000000E+0	0.00000000E+0	1.44542354E-5	1.02588249E-5	3.53725327E-5	2.87866955E-5	8.88722883E-5	4.75252879E-4
3.12349000E+5	1.09999941E+1	0.00000000E+0	0.00000000E+0	1.43207001E-5	1.02119786E-5	3.56892330E-5	2.86295299E-5	8.88514416E-5	4.75141399E-4
3.21062000E+5	1.15000157E+1	0.00000000E+0	0.00000000E+0	1.43523651E-5	1.02303189E-5	3.55117095E-5	2.87783031E-5	8.88726966E-5	4.75255062E-4
3.29648000E+5	1.20000294E+1	0.00000000E+0	0.00000000E+0	1.43100130E-5	1.01889295E-5	3.53493554E-5	2.87917768E-5	8.86400746E-5	4.74011094E-4
3.46346000E+5	1.10000237E+1	0.00000000E+0	0.00000000E+0	1.42972486E-5	1.01471347E-5	3.54467524E-5	2.86867176E-5	8.85778533E-5	4.73678360E-4
3.56193000E+5	1.14998968E+1	0.00000000E+0	0.00000000E+0	1.43949228E-5	1.02184457E-5	3.54052735E-5	2.89093469E-5	8.89279889E-5	4.75550743E-4
3.64777000E+5	1.19999824E+1	0.00000000E+0	0.00000000E+0	1.43255817E-5	1.02363569E-5	3.53829873E-5	2.88567071E-5	8.88016330E-5	4.74875043E-4
3.72334000E+5	1.24999850E+1	0.00000000E+0	0.00000000E+0	1.41982483E-5	1.02246326E-5	3.52488292E-5	2.87991439E-5	8.84708540E-5	4.73106171E-4
3.80094000E+5	1.30000846E+1	0.00000000E+0	0.00000000E+0	1.42710166E-5	1.02865351E-5	3.55603827E-5	2.87220900E-5	8.88400243E-5	4.75080344E-4
3.87578000E+5	1.34999067E+1	0.00000000E+0	0.00000000E+0	1.43004852E-5	1.02280689E-5	3.54682756E-5	2.89905702E-5	8.89873998E-5	4.75868448E-4
3.95072000E+5	1.40000769E+1	0.00000000E+0	0.00000000E+0	1.43209713E-5	1.01702613E-5	3.52941198E-5	2.87363653E-5	8.85217176E-5	4.73378169E-4
4.02604000E+5	1.44999432E+1	0.00000000E+0	0.00000000E+0	1.43249618E-5	1.02473212E-5	3.55852825E-5	2.86666278E-5	8.88241933E-5	4.74995686E-4
4.09927000E+5	1.50000022E+1	0.00000000E+0	0.00000000E+0	1.43584775E-5	1.02203262E-5	3.51662648E-5	2.87737434E-5	8.85188119E-5	4.73362630E-4
4.16888000E+5	1.55000122E+1	0.00000000E+0	0.00000000E+0	1.43523621E-5	1.01789278E-5	3.54025436E-5	2.87745152E-5	8.87083487E-5	4.74376196E-4
4.23728000E+5	1.60000215E+1	0.00000000E+0	0.00000000E+0	1.43592941E-5	1.02272582E-5	3.55841590E-5	2.87964110E-5	8.89671223E-5	4.75760012E-4
4.30365000E+5	1.65001068E+1	0.00000000E+0	0.00000000E+0	1.42742949E-5	1.01906431E-5	3.54678166E-5	2.88451080E-5	8.87778626E-5	4.74747929E-4
4.37008000E+5	1.70000001E+1	0.00000000E+0	0.00000000E+0	1.44050884E-5	1.02108819E-5	3.51350349E-5	2.89391433E-5	8.86901484E-5	4.74278869E-4
4.43684000E+5	1.74998940E+1	0.00000000E+0	0.00000000E+0	1.42635899E-5	1.02824551E-5	3.55648232E-5	2.88666313E-5	8.89774995E-5	4.75815505E-4
4.50019000E+5	1.80000583E+1	0.00000000E+0	0.00000000E+0	1.42061399E-5	1.01571721E-5	3.52084887E-5	2.87056182E-5	8.82774190E-5	4.72071759E-4
4.70069000E+5	1.50001126E+1	0.00000000E+0	0.00000000E+0	1.43957930E-5	1.02668625E-5	3.55061126E-5	2.87843649E-5	8.89531331E-5	4.75685204E-4
4.78133000E+5	1.54998355E+1	0.00000000E+0	0.00000000E+0	1.42655747E-5	1.01913584E-5	3.54962570E-5	2.86333416E-5	8.85865317E-5	4.73724768E-4
4.85000000E+5	1.59999587E+1	0.00000000E+0	0.00000000E+0	1.42211842E-5	1.02084768E-5	3.54862345E-5	2.88719659E-5	8.87878613E-5	4.74801397E-4
4.91666000E+5	1.65001068E+1	0.00000000E+0	0.00000000E+0	1.42683612E-5	1.01869625E-5	3.55143083E-5	2.87217890E-5	8.86914210E-5	4.74285674E-4
4.98174000E+5	1.69998820E+1	0.00000000E+0	0.00000000E+0	1.43118041E-5	1.02172297E-5	3.52815342E-5	2.87222479E-5	8.85328160E-5	4.73437519E-4
5.04855000E+5	1.75000191E+1	0.00000000E+0	0.00000000E+0	1.43597620E-5	1.02929575E-5	3.54476405E-5	2.88831626E-5	8.89835225E-5	4.75847714E-4
5.11568000E+5	1.80000848E+1	0.00000000E+0	0.00000000E+0	1.43602597E-5	1.01910573E-5	3.53788597E-5	2.89230381E-5	8.88532148E-5	4.75150882E-4
5.18228000E+5	1.84999070E+1	0.00000000E+0	0.00000000E+0	1.44232618E-5	1.01583404E-5	3.53950871E-5	2.90925835E-5	8.90692728E-5	4.76306271E-4
5.24630000E+5	1.89999787E+1	0.00000000E+0	0.00000000E+0	1.43092858E-5	1.02975560E-5	3.56067998E-5	2.89733295E-5	8.91869711E-5	4.76935674E-4
5.31037000E+5	1.95001124E+1	0.00000000E+0	0.00000000E+0	1.42749356E-5	1.02455271E-5	3.55824722E-5	2.90094231E-5	8.91123580E-5	4.76536674E-4
5.37505000E+5	1.99999589E+1	0.00000000E+0	0.00000000E+0	1.43095183E-5	1.01816339E-5	3.53873653E-5	2.88550858E-5	8.87336032E-5	4.74511247E-4
5.43687000E+5	2.05000422E+1	0.00000000E+0	0.00000000E+0	1.45045447E-5	1.02084112E-5	3.54360056E-5	2.88237457E-5	8.89727073E-5	4.75789878E-4
5.50536000E+5	2.09999425E+1	0.00000000E+0	0.00000000E+0	1.42888712E-5	1.01631564E-5	3.56001509E-5	2.88288806E-5	8.88810592E-5	4.75299782E-4
5.56450000E+5	2.15000260E+1	0.00000000E+0	0.00000000E+0	1.42637449E-5	1.01805103E-5	3.55613870E-5	2.87544762E-5	8.87601183E-5	4.74653039E-4
5.62567000E+5	2.20000397E+1	0.00000000E+0	0.00000000E+0	1.44855576E-5	1.01932329E-5	3.57450111E-5	2.87226294E-5	8.91464310E-5	4.76718882E-4
5.68640000E+5	2.25000531E+1	0.00000000E+0	0.00000000E+0	1.43439489E-5	1.02855516E-5	3.54713393E-5	2.89259796E-5	8.90268194E-5	4.76079248E-4
5.74566000E+5	2.29998284E+1	0.00000000E+0	0.00000000E+0	1.42493533E-5	1.01644886E-5	3.53554708E-5	2.87740682E-5	8.85433809E-5	4.73494016E-4
5.80560000E+5	2.35001776E+1	0.00000000E+0	0.00000000E+0	1.43083887E-5	1.02159751E-5	3.53440029E-5	2.86934082E-5	8.85617749E-5	4.73592379E-4
5.86362000E+5	2.39998849E+1	0.00000000E+0	0.00000000E+0	1.42059909E-5	1.01517779E-5	3.55375451E-5	2.87890111E-5	8.86843251E-5	4.74247728E-4
5.92282000E+5	2.45000492E+1	0.00000000E+0	0.00000000E+0	1.43468665E-5	1.01523084E-5	3.54581845E-5	2.88125162E-5	8.87698756E-5	4.74705217E-4
5.98091000E+5	2.49998323E+1	0.00000000E+0	0.00000000E+0	1.43813657E-5	1.02006567E-5	3.54599131E-5	2.89563512E-5	8.89982866E-5	4.75926666E-4
6.12651000E+5	2.30001310E+1	0.00000000E+0	0.00000000E+0	1.43493610E-5	1.01893705E-5	3.54894651E-5	2.88287972E-5	8.88569938E-5	4.75171090E-4
6.18084000E+5	2.34995910E+1	0.00000000E+0	0.00000000E+0	1.42015891E-5	1.02460009E-5	3.55284525E-5	2.87780051E-5	8.87540476E-5	4.74620575E-4
6.22611000E+5	2.39998378E+1	0.00000000E+0	0.00000000E+0	1.43438088E-5	1.02069867E-5	3.54711992E-5	2.87898515E-5	8.88118462E-5	4.74929659E-4
6.27261000E+5	2.45000983E+1	0.00000000E+0	0.00000000E+0	1.42193543E-5	1.02114451E-5	3.52799160E-5	2.87235920E-5	8.84343074E-5	4.72910735E-4
6.31918000E+5	2.49999855E+1	0.00000000E+0	0.00000000E+0	1.41804027E-5	1.01848376E-5	3.52423263E-5	2.87878488E-5	8.83954154E-5	4.72702756E-4
6.36118000E+5	2.54999046E+1	0.00000000E+0	0.00000000E+0	1.42277198E-5	1.02000934E-5	3.53217912E-5	2.87985717E-5	8.85481761E-5	4.73519658E-4
6.40446000E+5	2.59999926E+1	0.00000000E+0	0.00000000E+0	1.43254774E-5	1.01908696E-5	3.52804733E-5	2.87038241E-5	8.85006444E-5	4.73265478E-4
6.44780000E+5	2.65000462E+1	0.00000000E+0	0.00000000E+0	1.42367469E-5	1.01766330E-5	3.54151530E-5	2.84897779E-5	8.83183108E-5	4.72290432E-4
6.49078000E+5	2.69999804E+1	0.00000000E+0	0.00000000E+0	1.42606365E-5	1.01828289E-5	3.53540254E-5	2.88982515E-5	8.86957423E-5	4.74308783E-4
6.53039000E+5	2.74999706E+1	0.00000000E+0	0.00000000E+0	1.43218922E-5	1.01570708E-5	3.53076887E-5	2.88066511E-5	8.85933028E-5	4.73760978E-4
6.57239000E+5	2.80000451E+1	0.00000000E+0	0.00000000E+0	1.43345731E-5	1.01762307E-5	3.54012293E-5	2.87284110E-5	8.86404441E-5	4.74013070E-4
6.61390000E+5	2.84999814E+1	0.00000000E+0	0.00000000E+0	1.42407613E-5	1.02280748E-5	3.56971396E-5	2.88357650E-5	8.90017407E-5	4.75945137E-4
6.65587000E+5	2.89998728E+1	0.00000000E+0	0.00000000E+0	1.43430667E-5	1.02742207E-5	3.53786898E-5	2.88981919E-5	8.88941692E-5	4.75369889E-4
6.69799000E+5	2.95003233E+1	0.00000000E+0	0.00000000E+0	1.42143117E-5	1.02511150E-5	3.52578503E-5	2.87658994E-5	8.84891765E-5	4.73204152E-4
6.73979000E+5	2.99997327E+1	0.00000000E+0	0.00000000E+0	1.43832731E-5	1.02099312E-5	3.51515901E-5	2.88932745E-5	8.86380689E-5	4.74000368E-4
6.77981000E+5	3.05001427E+1	0.00000000E+0	0.00000000E+0	1.43357562E-5	1.01686222E-5	3.52997405E-5	2.87997906E-5	8.86039094E-5	4.73817698E-4
6.82010000E+5	3.10001660E+1	0.00000000E+0	0.00000000E+0	1.41841488E-5	1.02087391E-5	3.53054148E-5	2.87945245E-5	8.84928272E-5	4.73223675E-4
6.86067000E+5	3.14999031E+1	0.00000000E+0	0.00000000E+0	1.43057781E-5	1.02249873E-5	3.57528938E-5	2.89607172E-5	8.92443763E-5	4.77242654E-4
6.90125000E+5	3.20001102E+1	0.00000000E+0	0.00000000E+0	1.41725557E-5	1.01706159E-5	3.53957487E-5	2.85524969E-5	8.82914172E-5	4.72146616E-4
6.94138000E+5	3.24998804E+1	0.00000000E+0	0.00000000E+0	1.43251347E-5	1.01181787E-5	3.53853357E-5	2.85886203E-5	8.84172694E-5	4.72819622E-4
6.98166000E+5	3.29995733E+1	0.00000000E+0	0.00000000E+0	1.41430961E-5	1.02378887E-5	3.52759791E-5	2.87731533E-5	8.84301172E-5	4.72888327E-4
7.02038000E+5	3.35001932E+1	0.00000000E+0	0.00000000E+0	1.41693609E-5	1.01737839E-5	3.55450196E-5	2.87520622E-5	8.86402266E-5	4.74011907E-4
7.05957000E+5	3.40004539E+1	0.00000000E+0	0.00000000E+0	1.43562304E-5	1.01627571E-5	3.51500970E-5	2.87335579E-5	8.84026424E-5	4.72741403E-4
7.10036000E+5	3.45001189E+1	0.00000000E+0	0.00000000E+0	1.43642919E-5	1.01738733E-5	3.54663086E-5	2.88592701E-5	8.88637440E-5	4.75207187E-4
7.13960000E+5	3.49998684E+1	0.00000000E+0	0.00000000E+0	1.45779538E-5	1.02360350E-5	3.56092555E-5	2.87490849E-5	8.91723292E-5	4.76857375E-4
7.17883000E+5	3.55000922E+1	0.00000000E+0	0.00000000E+0	1.43452959E-5	1.03039456E-5	3.54101581E-5	2.88195972E-5	8.88789968E-5	4.75288753E-4
7.21810000E+5	3.59999900E+1	0.00000000E+0	0.00000000E+0	1.43727737E-5	1.02815551E-5	3.56537444E-5	2.87544553E-5	8.90625285E-5	4.76270206E-4
7.25530000E+5	3.64999013E+1	0.00000000E+0	0.00000000E+0	1.42792749E-5	1.02857453E-5	3.56065048E-5	2.89394473E-5	8.91109722E-5	4.76529263E-4
7.29420000E+5	3.70001276E+1	0.00000000E+0	0.00000000E+0	1.42414766E-5	1.02582169E-5	3.53832376E-5	2.89142613E-5	8.87971924E-5	4.74851296E-4
7.33351000E+5	3.75000015E+1	0.00000000E+0	0.00000000E+0	1.43509435E-5	1.01902646E-5	3.54317469E-5	2.89612715E-5	8.89342265E-5	4.75584099E-4
7.37134000E+5	3.79995212E+1	0.00000000E+0	0.00000000E+0	1.43725979E-5	1.02806223E-5	3.55230225E-5	2.87000124E-5	8.88762550E-5	4.75274091E-4
7.40695000E+5	3.85002913E+1	0.00000000E+0	0.00000000E+0	1.43187659E-5	1.02075321E-5	3.55594201E-5	2.88148616E-5	8.89005797E-5	4.75404169E-4
7.44235000E+5	3.89998898E+1	0.00000000E+0	0.00000000E+0	1.42897742E-5	1.01385904E-5	3.54383660E-5	2.89408420E-5	8.88075726E-5	4.74906805E-4
7.48011000E+5	3.95002541E+1	0.00000000E+0	0.00000000E+0	1.43531250E-5	1.02576387E-5	3.56101406E-5	2.87638162E-5	8.89847206E-5	4.75854121E-4
7.51839000E+5	3.99997615E+1	0.00000000E+0	0.00000000E+0	1.43297481E-5	1.02812183E-5	3.55510635E-5	2.89579426E-5	8.91199725E-5	4.76577393E-4
7.55414000E+5	4.05003998E+1	0.00000000E+0	0.00000000E+0	1.43025117E-5	1.02117551E-5	3.53959156E-5	2.89602314E-5	8.88704138E-5	4.75242854E-4
7.59193000E+5	4.09999887E+1	0.00000000E+0	0.00000000E+0	1.43095749E-5	1.02341515E-5	3.54572726E-5	2.88008039E-5	8.88018028E-5	4.74875951E-4
7.62775000E+5	4.14996691E+1	0.00000000E+0	0.00000000E+0	1.43422949E-5	1.01935607E-5	3.53960914E-5	2.87930612E-5	8.87250082E-5	4.74465285E-4
7.66377000E+5	4.20002891E+1	0.00000000E+0	0.00000000E+0	1.42002003E-5	1.02696073E-5	3.53749615E-5	2.85986696E-5	8.84434388E-5	4.72959566E-4
7.69937000E+5	4.24999949E+1	0.00000000E+0	0.00000000E+0	1.43763470E-5	1.02880639E-5	3.54056728E-5	2.89986019E-5	8.90686857E-5	4.76303132E-4
7.73687000E+5	4.29996446E+1	0.00000000E+0	0.00000000E+0	1.42861622E-5	1.02441711E-5	3.54672325E-5	2.89334719E-5	8.89310377E-5	4.75567046E-4
7.78010000E+5	4.35006652E+1	0.00000000E+0	0.00000000E+0	1.42810660E-5	1.02276516E-5	3.54162765E-5	2.90519362E-5	8.89769303E-5	4.75812461E-4
7.81571000E+5	4.39997320E+1	0.00000000E+0	0.00000000E+0	1.43604206E-5	1.02105689E-5	3.54632658E-5	2.87752037E-5	8.88094591E-5	4.74916893E-4
7.85307000E+5	4.45001864E+1	0.00000000E+0	0.00000000E+0	1.42354654E-5	1.01639044E-5	3.53742105E-5	2.87952666E-5	8.85688470E-5	4.73630198E-4
7.88866000E+5	4.50000737E+1	0.00000000E+0	0.00000000E+0	1.42240958E-5	1.02130038E-5	3.54768020E-5	2.87265842E-5	8.86404858E-5	4.74013293E-4
8.09264000E+5	2.30003039E+1	0.00000000E+0	0.00000000E+0	1.42080145E-5	1.01806623E-5	3.54642582E-5	2.87312035E-5	8.85841386E-5	4.73711971E-4
8.14863000E+5	2.34995910E+1	0.00000000E+0	0.00000000E+0	1.42590331E-5	1.01711762E-5	3.55401678E-5	2.88770829E-5	8.88474600E-5	4.75120107E-4
8.19380000E+5	2.40000261E+1	0.00000000E+0	0.00000000E+0	1.42537402E-5	1.03122217E-5	3.52922899E-5	2.89828007E-5	8.88410525E-5	4.75085842E-4
8.24039000E+5	2.45000983E+1	0.00000000E+0	0.00000000E+0	1.42468946E-5	1.02038783E-5	3.54809148E-5	2.89210026E-5	8.88526903E-5	4.75148077E-4
8.28693000E+5	2.49999855E+1	0.00000000E+0	0.00000000E+0	1.43100428E-5	1.01829332E-5	3.53724194E-5	2.87584399E-5	8.86238353E-5	4.73924253E-4
8.32875000E+5	2.54998515E+1	0.00000000E+0	0.00000000E+0	1.43082368E-5	1.02793765E-5	3.54472739E-5	2.87748550E-5	8.88097422E-5	4.74918407E-4
8.37201000E+5	2.60001583E+1	0.00000000E+0	0.00000000E+0	1.43713670E-5	1.02132422E-5	3.54220373E-5	2.88374101E-5	8.88440566E-5	4.75101907E-4
8.41493000E+5	2.64998740E+1	0.00000000E+0	0.00000000E+0	1.43804836E-5	1.01945532E-5	3.55387760E-5	2.87830000E-5	8.88968127E-5	4.75384025E-4
8.45807000E+5	2.70000995E+1	0.00000000E+0	0.00000000E+0	1.42540442E-5	1.02011752E-5	3.53721661E-5	2.89265488E-5	8.87539344E-5	4.74619970E-4
8.49981000E+5	2.74999088E+1	0.00000000E+0	0.00000000E+0	1.43045472E-5	1.01832879E-5	3.52147234E-5	2.88912301E-5	8.85937886E-5	4.73763575E-4
8.54163000E+5	2.79999811E+1	0.00000000E+0	0.00000000E+0	1.42744797E-5	1.01920080E-5	3.54292852E-5	2.88378422E-5	8.87336151E-5	4.74511311E-4
8.58190000E+5	2.84997823E+1	0.00000000E+0	0.00000000E+0	1.42561810E-5	1.02160049E-5	3.52934790E-5	2.87104402E-5	8.84761052E-5	4.73134252E-4
8.62489000E+5	2.90002852E+1	0.00000000E+0	0.00000000E+0	1.43166738E-5	1.02549565E-5	3.55010969E-5	2.87757610E-5	8.88484882E-5	4.75125605E-4
8.66714000E+5	2.94998256E+1	0.00000000E+0	0.00000000E+0	1.43334197E-5	1.02165294E-5	3.55125589E-5	2.86594604E-5	8.87219684E-5	4.74449029E-4
8.70930000E+5	3.00002474E+1	0.00000000E+0	0.00000000E+0	1.42737406E-5	1.02060837E-5	3.52637661E-5	2.89925789E-5	8.87361692E-5	4.74524969E-4
8.75011000E+5	3.05000667E+1	0.00000000E+0	0.00000000E+0	1.42722802E-5	1.01591987E-5	3.53552801E-5	2.88110946E-5	8.85978536E-5	4.73785313E-4
8.79050000E+5	3.09999305E+1	0.00000000E+0	0.00000000E+0	1.43007117E-5	1.01124656E-5	3.53129936E-5	2.86783312E-5	8.84045021E-5	4.72751348E-4
8.83127000E+5	3.14999031E+1	0.00000000E+0	0.00000000E+0	1.43071043E-5	1.01565552E-5	3.53708190E-5	2.90088092E-5	8.88432877E-5	4.75097795E-4
8.87206000E+5	3.20001102E+1	0.00000000E+0	0.00000000E+0	1.43080699E-5	1.02383864E-5	3.53888882E-5	2.88746004E-5	8.88099448E-5	4.74919491E-4
8.91255000E+5	3.25000530E+1	0.00000000E+0	0.00000000E+0	1.42348128E-5	1.02190894E-5	3.54816151E-5	2.89793556E-5	8.89148729E-5	4.75480604E-4
8.95318000E+5	3.29998403E+1	0.00000000E+0	0.00000000E+0	1.43272715E-5	1.02364642E-5	3.54564143E-5	2.89857839E-5	8.90059339E-5	4.75967561E-4
8.99322000E+5	3.35001932E+1	0.00000000E+0	0.00000000E+0	1.41647177E-5	1.02794510E-5	3.53291613E-5	2.87041639E-5	8.84774939E-5	4.73141679E-4
9.03251000E+5	3.39997927E+1	0.00000000E+0	0.00000000E+0	1.41616779E-5	1.01580304E-5	3.53072536E-5	2.86472504E-5	8.82742123E-5	4.72054611E-4
9.07327000E+5	3.45003134E+1	0.00000000E+0	0.00000000E+0	1.42255442E-5	1.01981563E-5	3.53410376E-5	2.87402932E-5	8.85050313E-5	4.73288937E-4
9.11222000E+5	3.49999685E+1	0.00000000E+0	0.00000000E+0	1.43715846E-5	1.01312083E-5	3.53894067E-5	2.87504439E-5	8.86426435E-5	4.74024832E-4
9.15156000E+5	3.55000922E+1	0.00000000E+0	0.00000000E+0	1.42209934E-5	1.01803524E-5	3.53127402E-5	2.89360617E-5	8.86501478E-5	4.74064961E-4
9.19066000E+5	3.59999900E+1	0.00000000E+0	0.00000000E+0	1.42976301E-5	1.01546329E-5	3.53831006E-5	2.87429427E-5	8.85783063E-5	4.73680782E-4
9.22748000E+5	3.64999013E+1	0.00000000E+0	0.00000000E+0	1.42095940E-5	1.01540816E-5	3.53358758E-5	2.86966924E-5	8.83962439E-5	4.72707186E-4
9.26639000E+5	3.70002394E+1	0.00000000E+0	0.00000000E+0	1.43067139E-5	1.01370883E-5	3.52955950E-5	2.87339453E-5	8.84733425E-5	4.73119478E-4
9.30581000E+5	3.75000015E+1	0.00000000E+0	0.00000000E+0	1.43357532E-5	1.02271062E-5	3.55003280E-5	2.90393924E-5	8.91025798E-5	4.76484384E-4
9.34502000E+5	3.80001112E+1	0.00000000E+0	0.00000000E+0	1.42737882E-5	1.02724237E-5	3.54584915E-5	2.88694655E-5	8.88741689E-5	4.75262935E-4
9.38285000E+5	3.84998069E+1	0.00000000E+0	0.00000000E+0	1.43672245E-5	1.02028919E-5	3.54254944E-5	2.87482207E-5	8.87438314E-5	4.74565943E-4
9.41825000E+5	3.90001383E+1	0.00000000E+0	0.00000000E+0	1.44182461E-5	1.01240021E-5	3.55398518E-5	2.88132285E-5	8.88953285E-5	4.75376088E-4
9.45597000E+5	3.95005090E+1	0.00000000E+0	0.00000000E+0	1.42838972E-5	1.02906180E-5	3.55195356E-5	2.88711403E-5	8.89651911E-5	4.75749685E-4
9.49384000E+5	3.99998922E+1	0.00000000E+0	0.00000000E+0	1.42871427E-5	1.02419567E-5	3.53396041E-5	2.88247858E-5	8.86934893E-5	4.74296734E-4
9.52945000E+5	4.05002658E+1	0.00000000E+0	0.00000000E+0	1.42163115E-5	1.02414561E-5	3.53993130E-5	2.88221841E-5	8.86792646E-5	4.74220666E-4
9.56719000E+5	4.10002634E+1	0.00000000E+0	0.00000000E+0	1.44341009E-5	1.02068734E-5	3.54968769E-5	2.88978522E-5	8.90357034E-5	4.76126756E-4
9.60318000E+5	4.14999506E+1	0.00000000E+0	0.00000000E+0	1.44193875E-5	1.01907116E-5	3.54893518E-5	2.88174872E-5	8.89169382E-5	4.75491648E-4
9.63907000E+5	4.20000008E+1	0.00000000E+0	0.00000000E+0	1.42252969E-5	1.01618093E-5	3.53969318E-5	2.88546150E-5	8.86386530E-5	4.74003492E-4
9.67493000E+5	4.25002901E+1	0.00000000E+0	0.00000000E+0	1.42737644E-5	1.02062387E-5	3.52328849E-5	2.88569932E-5	8.85698811E-5	4.73635728E-4
9.71300000E+5	4.29996446E+1	0.00000000E+0	0.00000000E+0	1.42436581E-5	1.02032852E-5	3.55005515E-5	2.87253831E-5	8.86728780E-5	4.74186513E-4
9.74912000E+5	4.35003560E+1	0.00000000E+0	0.00000000E+0	1.43658268E-5	1.02029872E-5	3.54233128E-5	2.89195602E-5	8.89116870E-5	4.75463567E-4
9.78486000E+5	4.40000483E+1	0.00000000E+0	0.00000000E+0	1.42873423E-5	1.02639568E-5	3.56529219E-5	2.88944428E-5	8.90986638E-5	4.76463443E-4
9.82152000E+5	4.44990537E+1	0.00000000E+0	0.00000000E+0	1.42536002E-5	1.02656436E-5	3.54874504E-5	2.88798843E-5	8.88865785E-5	4.75329297E-4
9.85568000E+5	4.50000737E+1	0.00000000E+0	0.00000000E+0	1.42155843E-5	1.02225673E-5	3.55198694E-5	2.88873707E-5	8.88453917E-5	4.75109047E-4
