G:\BEAR_storage\User_Experiments\20220317_arneodo\Bpm\file(1)_bpm_0023.txt
Ring Energy (GeV): 2
Lifetime (hours): 14.3914
Scan beginning: 3/17/2022	10:00:48 PM
Ring current (mA): 308.98
Source position: x (mm): 0.003 x' (mrad): 0 y (mm): 0.006 y' (mrad): -0
Scan end: 3/17/2022	10:19:17 PM
Ring current (mA): 308.89
Source position: x (mm): 0.003 x' (mrad): 0.001 y (mm): 0.006 y' (mrad): -0

SCAN TYPE: PHOTON ENERGY VS VAR_1 VS VAR_2

FILE INFO: FILE INFO:

SCAN PARAMETERS
waiting time (ms): 1000
Number of scans: 1
Current scan number: 1
DARK OFF 
PREDARK OFF 

SCAN PARAMETERS
Regions configuration: 
number of regions: 7
Mirror grating scan: on
Timed acquisition: off
Region 1:
Initial energy (eV): 3.000000
Final energy (eV): 4.500000
Delta energy (eV): 0.500000
Deviation angle choice: Degrees: 
Deviation angle (°): NaN
B270 window
GNIM channel
range keithley B 200 pA
range keithley C 200 pA
range keithley A 200 pA
Var_1: ThetaA0.000000
Var_2: PhiA:  0.000000
Bias CEM (V): 0.000000
Bias Keithley B (V): -30.000000
Name region: 
Region 2:
Initial energy (eV): 4.000000
Final energy (eV): 8.000000
Delta energy (eV): 0.500000
Deviation angle choice: Degrees: 
Deviation angle (°): NaN
SiO2 window
GNIM channel
range keithley B 200 pA
range keithley C 200 pA
range keithley A 200 pA
Var_1: ThetaA0.000000
Var_2: PhiA:  0.000000
Bias CEM (V): 0.000000
Bias Keithley B (V): -30.000000
Name region: 
Region 3:
Initial energy (eV): 7.000000
Final energy (eV): 12.000000
Delta energy (eV): 0.500000
Deviation angle choice: Degrees: 
Deviation angle (°): NaN
filter LiF window
GNIM channel
range keithley B 200 pA
range keithley C 200 pA
range keithley A 200 pA
Var_1: ThetaA0.000000
Var_2: PhiA:  0.000000
Bias CEM (V): 0.000000
Bias Keithley B (V): -30.000000
Name region: 
Region 4:
Initial energy (eV): 11.000000
Final energy (eV): 18.000000
Delta energy (eV): 0.500000
Deviation angle choice: Degrees: 
Deviation angle (°): NaN
In filter
GNIM channel
range keithley B 200 pA
range keithley C 200 pA
range keithley A 200 pA
Var_1: ThetaA0.000000
Var_2: PhiA:  0.000000
Bias CEM (V): 0.000000
Bias Keithley B (V): -30.000000
Name region: 
Region 5:
Initial energy (eV): 15.000000
Final energy (eV): 25.000000
Delta energy (eV): 0.500000
Deviation angle choice: Degrees: 
Deviation angle (°): NaN
Sn filter
GNIM channel
range keithley B 200 pA
range keithley C 200 pA
range keithley A 200 pA
Var_1: ThetaA0.000000
Var_2: PhiA:  0.000000
Bias CEM (V): 0.000000
Bias Keithley B (V): -30.000000
Name region: 
Region 6:
Initial energy (eV): 23.000000
Final energy (eV): 45.000000
Delta energy (eV): 0.500000
Deviation angle choice: Degrees: 
Deviation angle (°): NaN
Full Beam
GNIM channel
range keithley B 20 nA
range keithley C 200 pA
range keithley A 20 nA
Var_1: ThetaA0.000000
Var_2: PhiA:  0.000000
Bias CEM (V): 0.000000
Bias Keithley B (V): -30.000000
Name region: 
Region 7:
Initial energy (eV): 23.000000
Final energy (eV): 45.000000
Delta energy (eV): 0.500000
Deviation angle choice: Degrees: 
Deviation angle (°): NaN
Al filter
GNIM channel
range keithley B 20 nA
range keithley C 200 pA
range keithley A 20 nA
Var_1: ThetaA0.000000
Var_2: PhiA:  0.000000
Bias CEM (V): 0.000000
Bias Keithley B (V): -30.000000
Name region: 

BEAR MONOCHROMATOR CONFIGURATION: 
Current Grating Position:     200056.30
Current Mirror Position: 9999.8
Current Grating: GNIM
P2 phiz position:  -0.0195
Mono axis position: 73.5000
Current Photon Energy (eV): 44.999
Current Deviation Angle: 29.905
Vertical Exit Slits (um): 100.000
Exit slit y axis position: 1.3625
Horizontal Exit Slits (um):  889.156
Exit slit z axis position: 1.9229
Mitutoyo position (mm): 

Dose on sample (mJ/cm^2): NaN

ENERGY CALIBRATION:
offset grating G1200: yes
Delta 0 order G1200:  -800.0
offset grating G1800: not
Delta 0 order G1800:  0.0
offset grating GNIM: not
Delta 0 order GNIM:  0.0
ZERO ORDER POSITIONS:
Grating G1200: Mirror position:  4938.0
Grating position: -105355.0
Grating G1800: 
Mirror position:  4938.0
Grating position: -106345.0
Grating GNIM: 
Mirror position:  10000.0
Grating position: 227300.0

Initial filter: Al filter

EXPERIMENTAL CHAMBER CONFIGURATION: 
PsiC (deg):   -0.000186
Phi Analyzer (degrees): -0.005682
Theta Manipulator (degrees): -44.000040
Theta Analyzer (degrees): -0.001619
PhiM (degrees): -0.003077
XM (mm): -7.999025
YM (mm): 7.960000
ZM (mm): (Warning: for kinetic energy scans, 
this parameter is given in the scan settings) 
-6.001413
TiltM (°): 0.000275

COIL VALUES
Ix (amps):2.820
Iy (amps): 6.789
Iz (amps): 37.337

POLARIZATION SELECTOR CONFIGURATION:
Psi1 (rad): -0.001665535
Psi2 (rad): 0.001417093
Z min position (mm): 46.599650
DZ position (mm): 18.599100
Zmin 0 (mm): 66.500000
DZ0 (mm): 53.000000

BEAM SELECTOR CONFIGURATION:
Zmin position (mm): NaN
DZ position (mm): NaN
Y+ position (mm): NaN
Y- position (mm): NaN

CHANNEL ELECTRON MULTIPLIER CONFIGURATION:
CEM configured: OFF
Bias CEM: 0.000000

FLUORESCENCE DETECTOR CONFIGURATION:
Not configured

LUMINESCENCE MONOCHROMATOR CONFIGURATION:
Optical fiber position (mm): 0.000000
Optical fiber Switch inside: OFF
Optical fiber Switch outside: ON
Monochromator wavelength (A): 0.000000
Limit Switches: ON

I0 MONITOR PARAMETERS:
I0 detector position(mm): -1.924999E+2
Lower switch: OFF
Upper switch: OFF
Valve status:open

PRESSURE PARAMETERS:
Monitor chamber pressure (mbar): 1.009e-09
Experimental chamber pressure -ION GAUGE-(mbar): 0.000000E+0

XMCD PARAMETERS:
Xmcd OFF
Xmcd Direction -
Xmcd current (A): 0.000000

Gated scan off

Instrument 1: AMMETER KEITHLEY 6517A B
Measure type: Current
range type: set range value
range value (ampere):  200 pA
Integration time:  set NPLC value
NPLC value: 10.000
Digital filter count: 2
SAMPLE BIAS (V): -30.000
Vsource: ON
Output Voltage value: 30.000
Vsource range: 1000 V

Range Keithley B changed to 20 nA

Range Keithley B changed to 200 pA

Range Keithley B changed to 20 nA

Range Keithley B changed to 200 pA

Range Keithley B changed to 20 nA

Range Keithley B changed to 200 pA

Range Keithley B changed to 20 nA

Range Keithley B changed to 200 pA

Range Keithley B changed to 20 nA

Range Keithley B changed to 200 pA

Range Keithley B changed to 20 nA

Range Keithley B changed to 200 pA

Range Keithley B changed to 20 nA

Range Keithley B changed to 200 pA

Range Keithley B changed to 20 nA

Instrument 2: AMMETER KEITHLEY 6517A A
Measure type: Current
range type: set range value
range value (ampere):  200 nA
Integration time:  set NPLC value
NPLC value: 10.000
Digital filter count: 2
Vsource: OFF
Output Voltage value: -0.000
Vsource range: 100 V
Trigger source: bus

Range Keithley A changed to 20 nA

Range Keithley A changed to 200 nA

Range Keithley A changed to 200 pA

Range Keithley A changed to 20 nA

Range Keithley A changed to 200 pA

Range Keithley A changed to 20 nA

Range Keithley A changed to 200 nA

Range Keithley A changed to 200 pA

Range Keithley A changed to 20 nA

Range Keithley A changed to 200 pA

Range Keithley A changed to 20 nA

Range Keithley A changed to 200 nA

Range Keithley A changed to 200 pA

Range Keithley A changed to 20 nA

Range Keithley A changed to 200 pA

Range Keithley A changed to 20 nA

Range Keithley A changed to 200 pA

Range Keithley A changed to 20 nA

Instrument 3: None


________________________________________________________________________________

RelativeTime (msec)	Photon Energy	Var_1	Var_2	a) I_1 (Amps)	b) I_2 (Amps)	d) I_3 (Amps)	c) I_4 (Amps)	I_BPM_sum (Amps)	Delta Z(mm)	
________________________________________________________________________________

9.88500000E+3	2.99999351E+0	0.00000000E+0	0.00000000E+0	1.38907002E-5	9.95059728E-6	3.64535375E-5	2.96098625E-5	8.99046975E-5	4.80773784E-4
3.74300000E+4	3.49999938E+0	0.00000000E+0	0.00000000E+0	1.38019548E-5	9.87157641E-6	3.62444653E-5	2.96033924E-5	8.95213890E-5	4.78724005E-4
5.88120000E+4	3.99999253E+0	0.00000000E+0	0.00000000E+0	1.37191670E-5	9.85882400E-6	3.64577993E-5	2.95699721E-5	8.96057623E-5	4.79175200E-4
7.70460000E+4	4.49999833E+0	0.00000000E+0	0.00000000E+0	1.38413148E-5	9.80519471E-6	3.62176342E-5	2.96688652E-5	8.95330089E-5	4.78786144E-4
1.05423000E+5	4.00000037E+0	0.00000000E+0	0.00000000E+0	1.38404475E-5	9.82416985E-6	3.62459792E-5	2.96411222E-5	8.95517188E-5	4.78886197E-4
1.24816000E+5	4.49998509E+0	0.00000000E+0	0.00000000E+0	1.37248354E-5	9.84338043E-6	3.62451358E-5	2.95561379E-5	8.93694895E-5	4.77911708E-4
1.40825000E+5	4.99999214E+0	0.00000000E+0	0.00000000E+0	1.37535022E-5	9.82251582E-6	3.58809633E-5	2.93136304E-5	8.87706117E-5	4.74709154E-4
1.55247000E+5	5.50000295E+0	0.00000000E+0	0.00000000E+0	1.39284121E-5	9.92653488E-6	3.63060816E-5	2.95163428E-5	8.96773713E-5	4.79558136E-4
1.68333000E+5	6.00000410E+0	0.00000000E+0	0.00000000E+0	1.37885915E-5	9.93322252E-6	3.64976390E-5	2.94914698E-5	8.97109228E-5	4.79737555E-4
1.80583000E+5	6.49999876E+0	0.00000000E+0	0.00000000E+0	1.37100624E-5	9.84392582E-6	3.64773377E-5	2.92316054E-5	8.92629313E-5	4.77341878E-4
1.92051000E+5	6.99998397E+0	0.00000000E+0	0.00000000E+0	1.38365851E-5	9.87122475E-6	3.65164592E-5	2.97021931E-5	8.99264622E-5	4.80890172E-4
2.02941000E+5	7.50002591E+0	0.00000000E+0	0.00000000E+0	1.38265745E-5	9.97842073E-6	3.64175274E-5	2.98017359E-5	9.00242585E-5	4.81413147E-4
2.13306000E+5	7.99996573E+0	0.00000000E+0	0.00000000E+0	1.37579487E-5	9.94204997E-6	3.63070650E-5	2.95240706E-5	8.95311343E-5	4.78776119E-4
2.35233000E+5	6.99999598E+0	0.00000000E+0	0.00000000E+0	1.37347536E-5	9.92365598E-6	3.64780499E-5	2.96499347E-5	8.97863942E-5	4.80141146E-4
2.47479000E+5	7.49996615E+0	0.00000000E+0	0.00000000E+0	1.38244914E-5	9.95677530E-6	3.64750846E-5	2.95022374E-5	8.97585886E-5	4.79992453E-4
2.57905000E+5	7.99996050E+0	0.00000000E+0	0.00000000E+0	1.38034181E-5	9.89248871E-6	3.62527831E-5	2.97009027E-5	8.96495926E-5	4.79409586E-4
2.67870000E+5	8.49999054E+0	0.00000000E+0	0.00000000E+0	1.40215414E-5	9.91214036E-6	3.63791897E-5	2.95681303E-5	8.98810017E-5	4.80647068E-4
2.77520000E+5	9.00002514E+0	0.00000000E+0	0.00000000E+0	1.37932853E-5	9.89853560E-6	3.61804826E-5	2.96110129E-5	8.94833165E-5	4.78520409E-4
2.86817000E+5	9.50001435E+0	0.00000000E+0	0.00000000E+0	1.37085335E-5	9.87544774E-6	3.62890913E-5	2.93720251E-5	8.92450975E-5	4.77246511E-4
2.96039000E+5	9.99997450E+0	0.00000000E+0	0.00000000E+0	1.37727009E-5	9.85952137E-6	3.65182533E-5	2.94580674E-5	8.96085429E-5	4.79190069E-4
3.05244000E+5	1.05000198E+1	0.00000000E+0	0.00000000E+0	1.38115870E-5	9.87778722E-6	3.62667127E-5	2.93892299E-5	8.93453168E-5	4.77782443E-4
3.13817000E+5	1.09999743E+1	0.00000000E+0	0.00000000E+0	1.36763827E-5	9.84175323E-6	3.59463645E-5	2.96805000E-5	8.91450005E-5	4.76711232E-4
3.22444000E+5	1.15000589E+1	0.00000000E+0	0.00000000E+0	1.37827025E-5	9.84843789E-6	3.61002190E-5	2.96233809E-5	8.93547403E-5	4.77832836E-4
3.31090000E+5	1.20000059E+1	0.00000000E+0	0.00000000E+0	1.37517737E-5	9.88165854E-6	3.63344146E-5	2.94925844E-5	8.94604313E-5	4.78398028E-4
3.47815000E+5	1.10000237E+1	0.00000000E+0	0.00000000E+0	1.38680445E-5	9.94062840E-6	3.63206966E-5	2.97548419E-5	8.98842114E-5	4.80664232E-4
3.58071000E+5	1.14999617E+1	0.00000000E+0	0.00000000E+0	1.38828205E-5	9.89317416E-6	3.62887128E-5	2.95444911E-5	8.96091985E-5	4.79193575E-4
3.66713000E+5	1.19999588E+1	0.00000000E+0	0.00000000E+0	1.37643473E-5	1.00163084E-5	3.61867411E-5	2.97504222E-5	8.97178191E-5	4.79774433E-4
3.74402000E+5	1.24999722E+1	0.00000000E+0	0.00000000E+0	1.39180468E-5	9.80910478E-6	3.65429415E-5	2.95050954E-5	8.97751885E-5	4.80081222E-4
3.82273000E+5	1.30000431E+1	0.00000000E+0	0.00000000E+0	1.38493256E-5	9.96504545E-6	3.64314093E-5	2.97027206E-5	8.99485010E-5	4.81008027E-4
3.89778000E+5	1.34999216E+1	0.00000000E+0	0.00000000E+0	1.37507008E-5	9.96330201E-6	3.62908705E-5	2.94704711E-5	8.94753444E-5	4.78477777E-4
3.97326000E+5	1.40000609E+1	0.00000000E+0	0.00000000E+0	1.38329195E-5	9.89693521E-6	3.62312539E-5	2.95249229E-5	8.94860315E-5	4.78534928E-4
4.04955000E+5	1.45000119E+1	0.00000000E+0	0.00000000E+0	1.37692885E-5	9.83065782E-6	3.64145680E-5	2.96018993E-5	8.96164137E-5	4.79232159E-4
4.12303000E+5	1.49999839E+1	0.00000000E+0	0.00000000E+0	1.37375610E-5	9.85445498E-6	3.63667770E-5	2.95568591E-5	8.95156520E-5	4.78693326E-4
4.19317000E+5	1.55000122E+1	0.00000000E+0	0.00000000E+0	1.36930899E-5	9.91077243E-6	3.64559426E-5	2.93161368E-5	8.93759417E-5	4.77946212E-4
4.26171000E+5	1.59999797E+1	0.00000000E+0	0.00000000E+0	1.38662593E-5	9.86502288E-6	3.62733348E-5	2.93501949E-5	8.93548118E-5	4.77833218E-4
4.32819000E+5	1.65001068E+1	0.00000000E+0	0.00000000E+0	1.39792101E-5	9.83855246E-6	3.61813618E-5	2.98502779E-5	8.98494023E-5	4.80478087E-4
4.39437000E+5	1.69999056E+1	0.00000000E+0	0.00000000E+0	1.37208389E-5	9.97020423E-6	3.67451056E-5	2.95737957E-5	9.00099444E-5	4.81336601E-4
4.46162000E+5	1.75000691E+1	0.00000000E+0	0.00000000E+0	1.38064371E-5	9.82572553E-6	3.63667531E-5	2.96522653E-5	8.96511811E-5	4.79418081E-4
4.52786000E+5	1.80001377E+1	0.00000000E+0	0.00000000E+0	1.38228969E-5	9.87832962E-6	3.62677707E-5	2.95959657E-5	8.95649629E-5	4.78957021E-4
4.72921000E+5	1.50000758E+1	0.00000000E+0	0.00000000E+0	1.38884144E-5	9.88864421E-6	3.61960365E-5	2.96804463E-5	8.96535414E-5	4.79430703E-4
4.81221000E+5	1.55000122E+1	0.00000000E+0	0.00000000E+0	1.37679265E-5	9.84472452E-6	3.62454160E-5	2.95611834E-5	8.94192504E-5	4.78177810E-4
4.88084000E+5	1.60000006E+1	0.00000000E+0	0.00000000E+0	1.37401329E-5	9.76976869E-6	3.61485077E-5	2.94095492E-5	8.90679585E-5	4.76299243E-4
4.94786000E+5	1.65000178E+1	0.00000000E+0	0.00000000E+0	1.35940717E-5	9.86865280E-6	3.63951846E-5	2.94222897E-5	8.92801987E-5	4.77434218E-4
5.01380000E+5	1.69999292E+1	0.00000000E+0	0.00000000E+0	1.38544338E-5	9.92147147E-6	3.64694371E-5	2.95129960E-5	8.97583383E-5	4.79991114E-4
5.08139000E+5	1.75000691E+1	0.00000000E+0	0.00000000E+0	1.39140324E-5	9.82607720E-6	3.62212492E-5	2.94599181E-5	8.94212770E-5	4.78188647E-4
5.14738000E+5	1.80000848E+1	0.00000000E+0	0.00000000E+0	1.38113783E-5	9.87881838E-6	3.63709940E-5	2.94870769E-5	8.95482677E-5	4.78867742E-4
5.21319000E+5	1.84997951E+1	0.00000000E+0	0.00000000E+0	1.38300257E-5	9.99724984E-6	3.66031303E-5	2.94780647E-5	8.99084705E-5	4.80793960E-4
5.27757000E+5	1.90000672E+1	0.00000000E+0	0.00000000E+0	1.37181656E-5	9.87215458E-6	3.62876488E-5	2.93149208E-5	8.91928898E-5	4.76967325E-4
5.34252000E+5	1.95000814E+1	0.00000000E+0	0.00000000E+0	1.38303177E-5	9.85978959E-6	3.64070250E-5	2.94294541E-5	8.95265865E-5	4.78751799E-4
5.40727000E+5	1.99999916E+1	0.00000000E+0	0.00000000E+0	1.37117372E-5	9.83433543E-6	3.59978242E-5	2.92100435E-5	8.87539403E-5	4.74620002E-4
5.46969000E+5	2.05000422E+1	0.00000000E+0	0.00000000E+0	1.37939023E-5	9.87543879E-6	3.62511946E-5	2.94524943E-5	8.93730300E-5	4.77930642E-4
5.53864000E+5	2.10000506E+1	0.00000000E+0	0.00000000E+0	1.37245880E-5	9.85896705E-6	3.61083640E-5	2.95832848E-5	8.92752039E-5	4.77407507E-4
5.59794000E+5	2.14999504E+1	0.00000000E+0	0.00000000E+0	1.38896631E-5	9.87343906E-6	3.61915006E-5	2.94514304E-5	8.94060331E-5	4.78107129E-4
5.65955000E+5	2.20000792E+1	0.00000000E+0	0.00000000E+0	1.37555407E-5	9.87789153E-6	3.65629389E-5	2.94949120E-5	8.96912831E-5	4.79632530E-4
5.72105000E+5	2.25000531E+1	0.00000000E+0	0.00000000E+0	1.38627695E-5	9.89046811E-6	3.63464637E-5	2.97908759E-5	8.98905772E-5	4.80698274E-4
5.78132000E+5	2.29998716E+1	0.00000000E+0	0.00000000E+0	1.36948363E-5	9.93371724E-6	3.63078757E-5	2.97272628E-5	8.96636921E-5	4.79484984E-4
5.84084000E+5	2.35000422E+1	0.00000000E+0	0.00000000E+0	1.38546662E-5	9.85528646E-6	3.62236543E-5	2.96980059E-5	8.96316129E-5	4.79313438E-4
5.89910000E+5	2.39999319E+1	0.00000000E+0	0.00000000E+0	1.38958232E-5	9.83910380E-6	3.64097966E-5	2.96277231E-5	8.97724467E-5	4.80066560E-4
5.95855000E+5	2.45000983E+1	0.00000000E+0	0.00000000E+0	1.38924883E-5	9.88498448E-6	3.64989235E-5	2.97662323E-5	9.00426287E-5	4.81511383E-4
6.01861000E+5	2.49999855E+1	0.00000000E+0	0.00000000E+0	1.37493299E-5	9.94496464E-6	3.64363267E-5	2.95662677E-5	8.96968889E-5	4.79662507E-4
6.17395000E+5	2.30003471E+1	0.00000000E+0	0.00000000E+0	1.37916015E-5	9.85921143E-6	3.64941491E-5	2.92871421E-5	8.94321042E-5	4.78246546E-4
6.24647000E+5	2.35001325E+1	0.00000000E+0	0.00000000E+0	1.38460444E-5	9.88943099E-6	3.61876918E-5	2.97201907E-5	8.96433579E-5	4.79376246E-4
6.30449000E+5	2.39998849E+1	0.00000000E+0	0.00000000E+0	1.38107167E-5	9.91962968E-6	3.64190264E-5	2.96866333E-5	8.98360061E-5	4.80406450E-4
6.36409000E+5	2.45000492E+1	0.00000000E+0	0.00000000E+0	1.38379590E-5	9.90730940E-6	3.64461108E-5	2.96037530E-5	8.97951323E-5	4.80187873E-4
6.42457000E+5	2.50000366E+1	0.00000000E+0	0.00000000E+0	1.37442575E-5	9.87853228E-6	3.62333997E-5	2.95895075E-5	8.94456970E-5	4.78319235E-4
6.47944000E+5	2.54999577E+1	0.00000000E+0	0.00000000E+0	1.38589220E-5	9.88063036E-6	3.61211105E-5	2.95930391E-5	8.94537019E-5	4.78362042E-4
6.53559000E+5	2.60000478E+1	0.00000000E+0	0.00000000E+0	1.37586908E-5	9.87599014E-6	3.65472509E-5	2.96962684E-5	8.98782003E-5	4.80632087E-4
6.59183000E+5	2.64999888E+1	0.00000000E+0	0.00000000E+0	1.38962047E-5	9.84085916E-6	3.66142734E-5	2.94626390E-5	8.98139763E-5	4.80288643E-4
6.64638000E+5	2.69999208E+1	0.00000000E+0	0.00000000E+0	1.38053255E-5	9.89490269E-6	3.62575693E-5	2.95512086E-5	8.95090061E-5	4.78657787E-4
6.70183000E+5	2.75000942E+1	0.00000000E+0	0.00000000E+0	1.38608204E-5	9.88350628E-6	3.65144147E-5	2.96409285E-5	8.98996699E-5	4.80746898E-4
6.75655000E+5	2.80001092E+1	0.00000000E+0	0.00000000E+0	1.38762312E-5	9.88326191E-6	3.63906397E-5	2.95753991E-5	8.97255319E-5	4.79815679E-4
6.81055000E+5	2.84995832E+1	0.00000000E+0	0.00000000E+0	1.37989657E-5	9.84924255E-6	3.63202705E-5	2.94206088E-5	8.93890875E-5	4.78016511E-4
6.86557000E+5	2.90001477E+1	0.00000000E+0	0.00000000E+0	1.38435499E-5	9.82206581E-6	3.66338088E-5	2.95958346E-5	8.98952591E-5	4.80723311E-4
6.92052000E+5	2.95001100E+1	0.00000000E+0	0.00000000E+0	1.37416886E-5	9.87939356E-6	3.61667229E-5	2.95779204E-5	8.93657254E-5	4.77891580E-4
6.97378000E+5	3.00001004E+1	0.00000000E+0	0.00000000E+0	1.39659839E-5	9.92104827E-6	3.63495274E-5	2.94743990E-5	8.97109586E-5	4.79737746E-4
7.02715000E+5	3.05000667E+1	0.00000000E+0	0.00000000E+0	1.37838082E-5	9.84395264E-6	3.63056971E-5	2.96786284E-5	8.96120864E-5	4.79209018E-4
7.08110000E+5	3.09999305E+1	0.00000000E+0	0.00000000E+0	1.39899002E-5	9.84389303E-6	3.60179795E-5	2.96075618E-5	8.94593345E-5	4.78392163E-4
7.13457000E+5	3.14999842E+1	0.00000000E+0	0.00000000E+0	1.40638964E-5	9.83036576E-6	3.62402989E-5	2.96481257E-5	8.97826868E-5	4.80121320E-4
7.18801000E+5	3.20001102E+1	0.00000000E+0	0.00000000E+0	1.37094246E-5	9.81057701E-6	3.63947226E-5	2.95558309E-5	8.94705551E-5	4.78452166E-4
7.24043000E+5	3.24994489E+1	0.00000000E+0	0.00000000E+0	1.37042479E-5	9.92524146E-6	3.63428994E-5	2.95594996E-5	8.95318883E-5	4.78780151E-4
7.29528000E+5	3.30006411E+1	0.00000000E+0	0.00000000E+0	1.38709413E-5	9.86051081E-6	3.64264472E-5	2.95248007E-5	8.96827000E-5	4.79586631E-4
7.34723000E+5	3.34994596E+1	0.00000000E+0	0.00000000E+0	1.37716787E-5	9.86464737E-6	3.62946613E-5	2.94259375E-5	8.93569248E-5	4.77844518E-4
7.39975000E+5	3.40005483E+1	0.00000000E+0	0.00000000E+0	1.38791160E-5	9.90900217E-6	3.61810072E-5	2.92782252E-5	8.92473506E-5	4.77258559E-4
7.45323000E+5	3.45002162E+1	0.00000000E+0	0.00000000E+0	1.37585478E-5	9.79370890E-6	3.64303781E-5	2.93857669E-5	8.93684017E-5	4.77905891E-4
7.50598000E+5	3.49999685E+1	0.00000000E+0	0.00000000E+0	1.36162327E-5	9.87244366E-6	3.63751276E-5	2.95385366E-5	8.94023406E-5	4.78087383E-4
7.55823000E+5	3.54999892E+1	0.00000000E+0	0.00000000E+0	1.37790130E-5	9.88113402E-6	3.61346228E-5	2.96412265E-5	8.94359963E-5	4.78267360E-4
7.61051000E+5	3.59999900E+1	0.00000000E+0	0.00000000E+0	1.37497412E-5	9.86090122E-6	3.60449178E-5	2.95357680E-5	8.91913282E-5	4.76958974E-4
7.66045000E+5	3.65002278E+1	0.00000000E+0	0.00000000E+0	1.38702230E-5	9.84827695E-6	3.61740781E-5	2.95019125E-5	8.93944906E-5	4.78045405E-4
7.71310000E+5	3.69997920E+1	0.00000000E+0	0.00000000E+0	1.38305204E-5	9.78263435E-6	3.62311406E-5	2.95732265E-5	8.94175219E-5	4.78168566E-4
7.76480000E+5	3.75002313E+1	0.00000000E+0	0.00000000E+0	1.38729410E-5	9.77282939E-6	3.59937323E-5	2.96600496E-5	8.92995524E-5	4.77537713E-4
7.81743000E+5	3.79999932E+1	0.00000000E+0	0.00000000E+0	1.38145195E-5	9.93119299E-6	3.61262633E-5	2.96839690E-5	8.95559447E-5	4.78908795E-4
7.86831000E+5	3.84998069E+1	0.00000000E+0	0.00000000E+0	1.37542532E-5	9.91488515E-6	3.65160747E-5	2.96024805E-5	8.97876936E-5	4.80148094E-4
7.91742000E+5	3.90001383E+1	0.00000000E+0	0.00000000E+0	1.40333014E-5	9.94068503E-6	3.64045306E-5	2.96750730E-5	9.00535899E-5	4.81570000E-4
7.96776000E+5	3.95002541E+1	0.00000000E+0	0.00000000E+0	1.36394815E-5	9.92601632E-6	3.63135053E-5	2.96055144E-5	8.94845175E-5	4.78526832E-4
8.01861000E+5	4.00002844E+1	0.00000000E+0	0.00000000E+0	1.37661235E-5	9.94543850E-6	3.63486959E-5	2.97887212E-5	8.98489791E-5	4.80475824E-4
8.06742000E+5	4.04998637E+1	0.00000000E+0	0.00000000E+0	1.37796538E-5	9.85420166E-6	3.62883253E-5	2.94474428E-5	8.93696236E-5	4.77912426E-4
8.11844000E+5	4.10004008E+1	0.00000000E+0	0.00000000E+0	1.38377027E-5	9.94692265E-6	3.62835212E-5	2.98176145E-5	8.98857611E-5	4.80672519E-4
8.16774000E+5	4.14998099E+1	0.00000000E+0	0.00000000E+0	1.37626009E-5	9.95743393E-6	3.65132733E-5	2.94537669E-5	8.96870750E-5	4.79610027E-4
8.21737000E+5	4.20001449E+1	0.00000000E+0	0.00000000E+0	1.37485014E-5	9.87506925E-6	3.63579942E-5	2.98441267E-5	8.98256916E-5	4.80351292E-4
8.26849000E+5	4.24999949E+1	0.00000000E+0	0.00000000E+0	1.39029102E-5	9.79576228E-6	3.64448919E-5	2.96794211E-5	8.98229855E-5	4.80336821E-4
8.31763000E+5	4.29999467E+1	0.00000000E+0	0.00000000E+0	1.37698220E-5	9.89903032E-6	3.65698262E-5	2.97620868E-5	9.00007653E-5	4.81287515E-4
8.37392000E+5	4.35003560E+1	0.00000000E+0	0.00000000E+0	1.37413459E-5	9.83388839E-6	3.65780278E-5	2.95959836E-5	8.97492456E-5	4.79942490E-4
8.42132000E+5	4.39992574E+1	0.00000000E+0	0.00000000E+0	1.37346642E-5	9.87870811E-6	3.63516910E-5	2.96896165E-5	8.96546799E-5	4.79436791E-4
8.47176000E+5	4.45003482E+1	0.00000000E+0	0.00000000E+0	1.37986706E-5	9.87215756E-6	3.64308430E-5	2.94552838E-5	8.95569550E-5	4.78914198E-4
8.52024000E+5	4.50004047E+1	0.00000000E+0	0.00000000E+0	1.36191980E-5	9.93954360E-6	3.64003970E-5	2.94980174E-5	8.94571560E-5	4.78380513E-4
8.73763000E+5	2.30001742E+1	0.00000000E+0	0.00000000E+0	1.38482528E-5	9.85459207E-6	3.63365306E-5	2.95995748E-5	8.96389502E-5	4.79352675E-4
8.81047000E+5	2.35000874E+1	0.00000000E+0	0.00000000E+0	1.37385653E-5	9.83543513E-6	3.64918186E-5	2.95256501E-5	8.95914691E-5	4.79098765E-4
8.86874000E+5	2.39999790E+1	0.00000000E+0	0.00000000E+0	1.37830423E-5	9.88586365E-6	3.63373055E-5	2.95221811E-5	8.95283925E-5	4.78761457E-4
8.92822000E+5	2.45001473E+1	0.00000000E+0	0.00000000E+0	1.39103966E-5	9.92861210E-6	3.62795068E-5	2.95052564E-5	8.96237719E-5	4.79271507E-4
8.98856000E+5	2.49998834E+1	0.00000000E+0	0.00000000E+0	1.36617617E-5	9.84853623E-6	3.61007286E-5	2.95921003E-5	8.92031269E-5	4.77022069E-4
9.04329000E+5	2.55000108E+1	0.00000000E+0	0.00000000E+0	1.36758016E-5	9.86947535E-6	3.61901893E-5	2.96260631E-5	8.93615293E-5	4.77869141E-4
9.09972000E+5	2.59999373E+1	0.00000000E+0	0.00000000E+0	1.37388961E-5	9.82259331E-6	3.61292375E-5	2.94632619E-5	8.91539889E-5	4.76759299E-4
9.15572000E+5	2.65001035E+1	0.00000000E+0	0.00000000E+0	1.35788069E-5	9.88025187E-6	3.64330276E-5	2.96206629E-5	8.95127493E-5	4.78677804E-4
9.21238000E+5	2.69999804E+1	0.00000000E+0	0.00000000E+0	1.37681024E-5	9.81755970E-6	3.61021174E-5	2.93723648E-5	8.90601443E-5	4.76257456E-4
9.26697000E+5	2.75000942E+1	0.00000000E+0	0.00000000E+0	1.37717859E-5	9.95431661E-6	3.64039345E-5	2.97399139E-5	8.98699510E-5	4.80587973E-4
9.32155000E+5	2.79998529E+1	0.00000000E+0	0.00000000E+0	1.36952536E-5	9.87430929E-6	3.60107375E-5	2.94331764E-5	8.90134769E-5	4.76007898E-4
9.37490000E+5	2.84997823E+1	0.00000000E+0	0.00000000E+0	1.37340055E-5	9.90380167E-6	3.63866551E-5	2.97875321E-5	8.98119944E-5	4.80278045E-4
9.43042000E+5	2.90002164E+1	0.00000000E+0	0.00000000E+0	1.38142781E-5	9.97044265E-6	3.64071234E-5	2.95402562E-5	8.97321003E-5	4.79850804E-4
9.48588000E+5	2.95001100E+1	0.00000000E+0	0.00000000E+0	1.37496369E-5	9.97819423E-6	3.62872376E-5	2.95299833E-5	8.95450520E-5	4.78850545E-4
9.54124000E+5	2.99999533E+1	0.00000000E+0	0.00000000E+0	1.37652116E-5	9.85326884E-6	3.62048371E-5	2.97206586E-5	8.95439761E-5	4.78844792E-4
9.59466000E+5	3.05001427E+1	0.00000000E+0	0.00000000E+0	1.38597684E-5	9.92789983E-6	3.64357336E-5	2.95181250E-5	8.97415268E-5	4.79901213E-4
9.64808000E+5	3.09998519E+1	0.00000000E+0	0.00000000E+0	1.37417690E-5	9.81287179E-6	3.62529619E-5	2.93537234E-5	8.91613262E-5	4.76798536E-4
9.70181000E+5	3.15000653E+1	0.00000000E+0	0.00000000E+0	1.37168245E-5	9.82293902E-6	3.63633587E-5	2.93002283E-5	8.92033504E-5	4.77023264E-4
9.75516000E+5	3.20000266E+1	0.00000000E+0	0.00000000E+0	1.37925731E-5	9.90242182E-6	3.63589449E-5	2.98109209E-5	8.98648608E-5	4.80560753E-4
9.80861000E+5	3.24999667E+1	0.00000000E+0	0.00000000E+0	1.36839197E-5	9.81697557E-6	3.65216627E-5	2.97456091E-5	8.97681671E-5	4.80043674E-4
9.86103000E+5	3.30001072E+1	0.00000000E+0	0.00000000E+0	1.37748049E-5	9.89683388E-6	3.62729652E-5	2.97927147E-5	8.97373187E-5	4.79878710E-4
9.91256000E+5	3.34996430E+1	0.00000000E+0	0.00000000E+0	1.36049585E-5	9.88748191E-6	3.63637521E-5	2.97811752E-5	8.96373677E-5	4.79344212E-4
9.96556000E+5	3.40004539E+1	0.00000000E+0	0.00000000E+0	1.38171898E-5	9.91316556E-6	3.64087148E-5	2.92676156E-5	8.94066858E-5	4.78110619E-4
1.00176800E+6	3.45000216E+1	0.00000000E+0	0.00000000E+0	1.38602780E-5	1.00049776E-5	3.62637891E-5	2.94904714E-5	8.96195161E-5	4.79248749E-4
1.00697700E+6	3.49999685E+1	0.00000000E+0	0.00000000E+0	1.37985514E-5	9.92519080E-6	3.65006967E-5	2.95799916E-5	8.98044306E-5	4.80237597E-4
1.01224300E+6	3.54999892E+1	0.00000000E+0	0.00000000E+0	1.37437658E-5	9.97054696E-6	3.64849909E-5	2.96827709E-5	8.98820746E-5	4.80652805E-4
1.01758000E+6	3.59999900E+1	0.00000000E+0	0.00000000E+0	1.39059262E-5	9.83204065E-6	3.65002288E-5	2.95434361E-5	8.97816318E-5	4.80115678E-4
1.02258700E+6	3.65001190E+1	0.00000000E+0	0.00000000E+0	1.38797449E-5	9.87726568E-6	3.65071221E-5	2.98364049E-5	9.01005376E-5	4.81821056E-4
1.02771400E+6	3.69993445E+1	0.00000000E+0	0.00000000E+0	1.38632433E-5	9.94287550E-6	3.64948972E-5	2.98668390E-5	9.01678550E-5	4.82181043E-4
1.03293000E+6	3.75005761E+1	0.00000000E+0	0.00000000E+0	1.39024125E-5	9.83480928E-6	3.61951215E-5	2.95042997E-5	8.94366431E-5	4.78270818E-4
1.03817100E+6	3.79997572E+1	0.00000000E+0	0.00000000E+0	1.37621062E-5	9.81741665E-6	3.64287956E-5	2.92958265E-5	8.93041449E-5	4.77562272E-4
1.04344100E+6	3.85002913E+1	0.00000000E+0	0.00000000E+0	1.37746887E-5	9.84347282E-6	3.65776284E-5	2.97470337E-5	8.99428236E-5	4.80977667E-4
1.04836000E+6	3.89998898E+1	0.00000000E+0	0.00000000E+0	1.39600711E-5	9.87715541E-6	3.65314915E-5	2.98582381E-5	9.02269560E-5	4.82497091E-4
1.05340200E+6	3.94997441E+1	0.00000000E+0	0.00000000E+0	1.38537632E-5	9.82657192E-6	3.62521721E-5	2.96546763E-5	8.95871835E-5	4.79075848E-4
1.05855400E+6	4.00005459E+1	0.00000000E+0	0.00000000E+0	1.38251232E-5	9.85781966E-6	3.61530198E-5	2.93211882E-5	8.91571509E-5	4.76776208E-4
1.06339800E+6	4.04998637E+1	0.00000000E+0	0.00000000E+0	1.39209317E-5	9.86553548E-6	3.59609915E-5	2.96781545E-5	8.94256132E-5	4.78211835E-4
1.06852000E+6	4.10001260E+1	0.00000000E+0	0.00000000E+0	1.36736707E-5	9.84289465E-6	3.63359226E-5	2.95265114E-5	8.93789994E-5	4.77962564E-4
1.07340900E+6	4.14996691E+1	0.00000000E+0	0.00000000E+0	1.36814074E-5	9.92934822E-6	3.61551119E-5	2.96674257E-5	8.94332933E-5	4.78252905E-4
1.07832000E+6	4.19998567E+1	0.00000000E+0	0.00000000E+0	1.37419955E-5	9.84537719E-6	3.62074269E-5	2.99546546E-5	8.97494542E-5	4.79943606E-4
1.08346200E+6	4.25002901E+1	0.00000000E+0	0.00000000E+0	1.36633651E-5	9.93655144E-6	3.63514497E-5	2.94161146E-5	8.93674808E-5	4.77900967E-4
1.08844300E+6	4.29997956E+1	0.00000000E+0	0.00000000E+0	1.36267619E-5	9.88122045E-6	3.61031695E-5	2.95555210E-5	8.91666727E-5	4.76827127E-4
1.09330300E+6	4.35005106E+1	0.00000000E+0	0.00000000E+0	1.38036595E-5	9.81218634E-6	3.61829682E-5	2.96120023E-5	8.94108164E-5	4.78132708E-4
1.09820300E+6	4.39998902E+1	0.00000000E+0	0.00000000E+0	1.36614637E-5	9.79973791E-6	3.62598135E-5	2.95071279E-5	8.92281430E-5	4.77155845E-4
1.10324200E+6	4.45000245E+1	0.00000000E+0	0.00000000E+0	1.36645035E-5	9.89464639E-6	3.64838405E-5	2.95701271E-5	8.96131175E-5	4.79214532E-4
1.10805800E+6	4.49997428E+1	0.00000000E+0	0.00000000E+0	1.35642396E-5	9.87581728E-6	3.64246740E-5	2.95020079E-5	8.93667387E-5	4.77896999E-4
