G:\BEAR_storage\User_Experiments\20220317_arneodo\Bpm\file(1)_bpm_0022.txt
Ring Energy (GeV): 2
Lifetime (hours): 14.2658
Scan beginning: 3/17/2022	8:56:03 PM
Ring current (mA): 308.4
Source position: x (mm): 0.004 x' (mrad): 0 y (mm): 0.007 y' (mrad): -0.001
Scan end: 3/17/2022	9:14:21 PM
Ring current (mA): 308.82
Source position: x (mm): 0.004 x' (mrad): -0 y (mm): 0.007 y' (mrad): -0.001

SCAN TYPE: PHOTON ENERGY VS VAR_1 VS VAR_2

FILE INFO: FILE INFO:

SCAN PARAMETERS
waiting time (ms): 1000
Number of scans: 1
Current scan number: 1
DARK OFF 
PREDARK OFF 

SCAN PARAMETERS
Regions configuration: 
number of regions: 7
Mirror grating scan: on
Timed acquisition: off
Region 1:
Initial energy (eV): 3.000000
Final energy (eV): 4.500000
Delta energy (eV): 0.500000
Deviation angle choice: Degrees: 
Deviation angle (°): NaN
B270 window
GNIM channel
range keithley B 200 pA
range keithley C 200 pA
range keithley A 200 pA
Var_1: ThetaA0.000000
Var_2: PhiA:  0.000000
Bias CEM (V): 0.000000
Bias Keithley B (V): -30.000000
Name region: 
Region 2:
Initial energy (eV): 4.000000
Final energy (eV): 8.000000
Delta energy (eV): 0.500000
Deviation angle choice: Degrees: 
Deviation angle (°): NaN
SiO2 window
GNIM channel
range keithley B 200 pA
range keithley C 200 pA
range keithley A 200 pA
Var_1: ThetaA0.000000
Var_2: PhiA:  0.000000
Bias CEM (V): 0.000000
Bias Keithley B (V): -30.000000
Name region: 
Region 3:
Initial energy (eV): 7.000000
Final energy (eV): 12.000000
Delta energy (eV): 0.500000
Deviation angle choice: Degrees: 
Deviation angle (°): NaN
filter LiF window
GNIM channel
range keithley B 200 pA
range keithley C 200 pA
range keithley A 200 pA
Var_1: ThetaA0.000000
Var_2: PhiA:  0.000000
Bias CEM (V): 0.000000
Bias Keithley B (V): -30.000000
Name region: 
Region 4:
Initial energy (eV): 11.000000
Final energy (eV): 18.000000
Delta energy (eV): 0.500000
Deviation angle choice: Degrees: 
Deviation angle (°): NaN
In filter
GNIM channel
range keithley B 200 pA
range keithley C 200 pA
range keithley A 200 pA
Var_1: ThetaA0.000000
Var_2: PhiA:  0.000000
Bias CEM (V): 0.000000
Bias Keithley B (V): -30.000000
Name region: 
Region 5:
Initial energy (eV): 15.000000
Final energy (eV): 25.000000
Delta energy (eV): 0.500000
Deviation angle choice: Degrees: 
Deviation angle (°): NaN
Sn filter
GNIM channel
range keithley B 200 pA
range keithley C 200 pA
range keithley A 200 pA
Var_1: ThetaA0.000000
Var_2: PhiA:  0.000000
Bias CEM (V): 0.000000
Bias Keithley B (V): -30.000000
Name region: 
Region 6:
Initial energy (eV): 23.000000
Final energy (eV): 45.000000
Delta energy (eV): 0.500000
Deviation angle choice: Degrees: 
Deviation angle (°): NaN
Full Beam
GNIM channel
range keithley B 20 nA
range keithley C 200 pA
range keithley A 20 nA
Var_1: ThetaA0.000000
Var_2: PhiA:  0.000000
Bias CEM (V): 0.000000
Bias Keithley B (V): -30.000000
Name region: 
Region 7:
Initial energy (eV): 23.000000
Final energy (eV): 45.000000
Delta energy (eV): 0.500000
Deviation angle choice: Degrees: 
Deviation angle (°): NaN
Al filter
GNIM channel
range keithley B 20 nA
range keithley C 200 pA
range keithley A 20 nA
Var_1: ThetaA0.000000
Var_2: PhiA:  0.000000
Bias CEM (V): 0.000000
Bias Keithley B (V): -30.000000
Name region: 

BEAR MONOCHROMATOR CONFIGURATION: 
Current Grating Position:     -17509.60
Current Mirror Position: 10000.1
Current Grating: GNIM
P2 phiz position:  0.0664
Mono axis position: 73.5000
Current Photon Energy (eV): 5.000
Current Deviation Angle: 29.905
Vertical Exit Slits (um): 100.000
Exit slit y axis position: 1.3625
Horizontal Exit Slits (um):  889.156
Exit slit z axis position: 1.9229
Mitutoyo position (mm): 

Dose on sample (mJ/cm^2): NaN

ENERGY CALIBRATION:
offset grating G1200: yes
Delta 0 order G1200:  -800.0
offset grating G1800: not
Delta 0 order G1800:  0.0
offset grating GNIM: not
Delta 0 order GNIM:  0.0
ZERO ORDER POSITIONS:
Grating G1200: Mirror position:  4938.0
Grating position: -105355.0
Grating G1800: 
Mirror position:  4938.0
Grating position: -106345.0
Grating GNIM: 
Mirror position:  10000.0
Grating position: 227300.0

Initial filter: Ag filter 0.6 um

EXPERIMENTAL CHAMBER CONFIGURATION: 
PsiC (deg):   -0.000186
Phi Analyzer (degrees): -0.003788
Theta Manipulator (degrees): -44.000040
Theta Analyzer (degrees): -0.001619
PhiM (degrees): -0.003077
XM (mm): -0.999038
YM (mm): 7.960000
ZM (mm): (Warning: for kinetic energy scans, 
this parameter is given in the scan settings) 
-6.001413
TiltM (°): 0.000275

COIL VALUES
Ix (amps):2.820
Iy (amps): 6.789
Iz (amps): 37.337

POLARIZATION SELECTOR CONFIGURATION:
Psi1 (rad): -0.001665535
Psi2 (rad): 0.001417093
Z min position (mm): 46.599650
DZ position (mm): 18.599100
Zmin 0 (mm): 66.500000
DZ0 (mm): 53.000000

BEAM SELECTOR CONFIGURATION:
Zmin position (mm): NaN
DZ position (mm): NaN
Y+ position (mm): NaN
Y- position (mm): NaN

CHANNEL ELECTRON MULTIPLIER CONFIGURATION:
CEM configured: OFF
Bias CEM: 0.000000

FLUORESCENCE DETECTOR CONFIGURATION:
Not configured

LUMINESCENCE MONOCHROMATOR CONFIGURATION:
Optical fiber position (mm): 0.000000
Optical fiber Switch inside: OFF
Optical fiber Switch outside: ON
Monochromator wavelength (A): 0.000000
Limit Switches: ON

I0 MONITOR PARAMETERS:
I0 detector position(mm): -1.924999E+2
Lower switch: OFF
Upper switch: OFF
Valve status:open

PRESSURE PARAMETERS:
Monitor chamber pressure (mbar): 1.042e-09
Experimental chamber pressure -ION GAUGE-(mbar): 0.000000E+0

XMCD PARAMETERS:
Xmcd OFF
Xmcd Direction -
Xmcd current (A): 0.000000

Gated scan off

Instrument 1: AMMETER KEITHLEY 6517A B
Measure type: Current
range type: set range value
range value (ampere):  200 pA
Integration time:  set NPLC value
NPLC value: 10.000
Digital filter count: 2
SAMPLE BIAS (V): -30.000
Vsource: ON
Output Voltage value: 30.000
Vsource range: 1000 V

Range Keithley B changed to 20 nA

Range Keithley B changed to 200 pA

Range Keithley B changed to 20 nA

Range Keithley B changed to 200 pA

Range Keithley B changed to 20 nA

Range Keithley B changed to 200 pA

Range Keithley B changed to 20 nA

Range Keithley B changed to 200 pA

Range Keithley B changed to 20 nA

Range Keithley B changed to 200 pA

Range Keithley B changed to 20 nA

Range Keithley B changed to 200 pA

Range Keithley B changed to 20 nA

Instrument 2: AMMETER KEITHLEY 6517A A
Measure type: Current
range type: set range value
range value (ampere):  200 nA
Integration time:  set NPLC value
NPLC value: 10.000
Digital filter count: 2
Vsource: OFF
Output Voltage value: -0.000
Vsource range: 100 V
Trigger source: bus

Range Keithley A changed to 20 nA

Range Keithley A changed to 200 nA

Range Keithley A changed to 200 pA

Range Keithley A changed to 20 nA

Range Keithley A changed to 200 pA

Range Keithley A changed to 20 nA

Range Keithley A changed to 200 nA

Range Keithley A changed to 200 pA

Range Keithley A changed to 20 nA

Range Keithley A changed to 200 pA

Range Keithley A changed to 20 nA

Range Keithley A changed to 200 nA

Range Keithley A changed to 200 pA

Range Keithley A changed to 20 nA

Range Keithley A changed to 200 pA

Range Keithley A changed to 20 nA

Instrument 3: None


________________________________________________________________________________

RelativeTime (msec)	Photon Energy	Var_1	Var_2	a) I_1 (Amps)	b) I_2 (Amps)	d) I_3 (Amps)	c) I_4 (Amps)	I_BPM_sum (Amps)	Delta Z(mm)	
________________________________________________________________________________

8.46900000E+3	2.99999572E+0	0.00000000E+0	0.00000000E+0	1.38029085E-5	9.87801968E-6	3.67477461E-5	2.98485344E-5	9.02772087E-5	4.82765822E-4
3.59690000E+4	3.49999238E+0	0.00000000E+0	0.00000000E+0	1.37290703E-5	9.80306385E-6	3.64378943E-5	2.99024111E-5	8.98724395E-5	4.80601281E-4
5.73710000E+4	3.99999384E+0	0.00000000E+0	0.00000000E+0	1.38040499E-5	9.89992737E-6	3.63919391E-5	2.96341514E-5	8.97300678E-5	4.79839935E-4
7.54520000E+4	4.49999998E+0	0.00000000E+0	0.00000000E+0	1.38460265E-5	9.80190752E-6	3.64632441E-5	2.97955191E-5	8.99066973E-5	4.80784477E-4
1.03430000E+5	4.00001214E+0	0.00000000E+0	0.00000000E+0	1.38764100E-5	9.82171414E-6	3.63950505E-5	2.95912241E-5	8.96843987E-5	4.79595715E-4
1.23016000E+5	4.49999833E+0	0.00000000E+0	0.00000000E+0	1.38600694E-5	9.87837730E-6	3.65776433E-5	2.97306603E-5	9.00467503E-5	4.81533424E-4
1.38867000E+5	4.99998601E+0	0.00000000E+0	0.00000000E+0	1.38505148E-5	9.82602356E-6	3.64832028E-5	2.97809487E-5	8.99406898E-5	4.80966256E-4
1.53207000E+5	5.49999306E+0	0.00000000E+0	0.00000000E+0	1.36836128E-5	9.79967234E-6	3.62468107E-5	2.94467216E-5	8.91768174E-5	4.76881377E-4
1.66323000E+5	6.00000116E+0	0.00000000E+0	0.00000000E+0	1.37618588E-5	9.83874915E-6	3.63397135E-5	2.95468693E-5	8.94871908E-5	4.78541127E-4
1.78507000E+5	6.50000912E+0	0.00000000E+0	0.00000000E+0	1.36601971E-5	9.80946837E-6	3.65759208E-5	2.96076244E-5	8.96532106E-5	4.79428934E-4
1.89872000E+5	6.99997996E+0	0.00000000E+0	0.00000000E+0	1.37731360E-5	9.80992136E-6	3.63873466E-5	2.95857524E-5	8.95561563E-5	4.78909927E-4
2.00730000E+5	7.50002131E+0	0.00000000E+0	0.00000000E+0	1.37089239E-5	9.90043699E-6	3.62339748E-5	2.96007311E-5	8.94440668E-5	4.78310518E-4
2.11084000E+5	7.99997619E+0	0.00000000E+0	0.00000000E+0	1.35420398E-5	9.62595756E-6	3.63895936E-5	2.96715474E-5	8.92291384E-5	4.77161168E-4
2.33016000E+5	6.99999998E+0	0.00000000E+0	0.00000000E+0	1.38003008E-5	9.89868759E-6	3.64284827E-5	2.96955204E-5	8.98229915E-5	4.80336853E-4
2.45301000E+5	7.49998454E+0	0.00000000E+0	0.00000000E+0	1.37771206E-5	9.89295362E-6	3.66353734E-5	2.94636106E-5	8.97690582E-5	4.80048440E-4
2.55922000E+5	7.99996050E+0	0.00000000E+0	0.00000000E+0	1.37456493E-5	9.90782796E-6	3.64670410E-5	2.97199791E-5	8.98404974E-5	4.80430467E-4
2.65665000E+5	8.49997283E+0	0.00000000E+0	0.00000000E+0	1.38072954E-5	9.92821871E-6	3.64672615E-5	2.96593135E-5	8.98620891E-5	4.80545931E-4
2.75276000E+5	8.99999866E+0	0.00000000E+0	0.00000000E+0	1.37793468E-5	9.81163201E-6	3.64238186E-5	2.95438474E-5	8.95586448E-5	4.78923234E-4
2.84664000E+5	9.50001435E+0	0.00000000E+0	0.00000000E+0	1.37177514E-5	9.87176119E-6	3.65661963E-5	2.97106689E-5	8.98663777E-5	4.80568865E-4
2.93782000E+5	9.99997450E+0	0.00000000E+0	0.00000000E+0	1.36809604E-5	9.85610603E-6	3.63355620E-5	2.96785092E-5	8.95511376E-5	4.78883089E-4
3.02904000E+5	1.05000288E+1	0.00000000E+0	0.00000000E+0	1.37849437E-5	9.82357083E-6	3.63512202E-5	2.96496605E-5	8.96093952E-5	4.79194627E-4
3.11590000E+5	1.09999941E+1	0.00000000E+0	0.00000000E+0	1.37272911E-5	9.82461689E-6	3.62317605E-5	2.95134013E-5	8.92970698E-5	4.77524438E-4
3.20343000E+5	1.15000373E+1	0.00000000E+0	0.00000000E+0	1.37554483E-5	9.81989322E-6	3.63390221E-5	2.94341391E-5	8.93485027E-5	4.77799480E-4
3.28941000E+5	1.20000059E+1	0.00000000E+0	0.00000000E+0	1.37482570E-5	9.79695139E-6	3.63449200E-5	2.95712238E-5	8.94613522E-5	4.78402953E-4
3.45577000E+5	1.10000138E+1	0.00000000E+0	0.00000000E+0	1.38189839E-5	9.77868256E-6	3.58084036E-5	2.95226102E-5	8.89286803E-5	4.75554440E-4
3.55741000E+5	1.14999617E+1	0.00000000E+0	0.00000000E+0	1.39066445E-5	9.78160319E-6	3.62709267E-5	2.96827530E-5	8.96419274E-5	4.79368596E-4
3.64308000E+5	1.19999471E+1	0.00000000E+0	0.00000000E+0	1.37652920E-5	9.86763655E-6	3.63385274E-5	2.97474211E-5	8.97188770E-5	4.79780091E-4
3.71867000E+5	1.25000361E+1	0.00000000E+0	0.00000000E+0	1.38080286E-5	9.83557222E-6	3.64693566E-5	2.95808321E-5	8.96937894E-5	4.79645933E-4
3.79594000E+5	1.29999879E+1	0.00000000E+0	0.00000000E+0	1.37018429E-5	9.86311851E-6	3.63585366E-5	2.95831567E-5	8.95066547E-5	4.78645212E-4
3.87045000E+5	1.34999514E+1	0.00000000E+0	0.00000000E+0	1.37387590E-5	9.96594846E-6	3.65061952E-5	2.95881426E-5	8.97990453E-5	4.80208798E-4
3.94520000E+5	1.40000449E+1	0.00000000E+0	0.00000000E+0	1.36369662E-5	9.86761568E-6	3.63909228E-5	2.96169674E-5	8.95124721E-5	4.78676321E-4
4.02062000E+5	1.44999603E+1	0.00000000E+0	0.00000000E+0	1.36309849E-5	9.79471323E-6	3.62781359E-5	2.93466782E-5	8.90505122E-5	4.76205948E-4
4.09356000E+5	1.50000206E+1	0.00000000E+0	0.00000000E+0	1.37930559E-5	9.85473810E-6	3.63656713E-5	2.97701215E-5	8.97835868E-5	4.80126133E-4
4.16136000E+5	1.55000122E+1	0.00000000E+0	0.00000000E+0	1.37866782E-5	9.88375066E-6	3.62735881E-5	2.93813234E-5	8.93253403E-5	4.77675617E-4
4.22938000E+5	1.60000215E+1	0.00000000E+0	0.00000000E+0	1.38213532E-5	9.91375863E-6	3.64190860E-5	2.97346955E-5	8.98888934E-5	4.80689269E-4
4.29546000E+5	1.65001068E+1	0.00000000E+0	0.00000000E+0	1.37454824E-5	9.85959886E-6	3.64149733E-5	2.96753084E-5	8.96953630E-5	4.79654348E-4
4.36025000E+5	1.69999056E+1	0.00000000E+0	0.00000000E+0	1.37389050E-5	9.90296422E-6	3.62948580E-5	2.96754723E-5	8.96121996E-5	4.79209624E-4
4.42719000E+5	1.75000691E+1	0.00000000E+0	0.00000000E+0	1.38153152E-5	9.92564379E-6	3.65496858E-5	2.97595447E-5	9.00501895E-5	4.81551816E-4
4.49404000E+5	1.80000848E+1	0.00000000E+0	0.00000000E+0	1.37809025E-5	9.83868955E-6	3.60479398E-5	2.98281735E-5	8.94957053E-5	4.78586659E-4
4.69504000E+5	1.50001126E+1	0.00000000E+0	0.00000000E+0	1.38478087E-5	9.90713357E-6	3.63124563E-5	2.98043197E-5	8.98717183E-5	4.80597424E-4
4.77859000E+5	1.54999926E+1	0.00000000E+0	0.00000000E+0	1.38051139E-5	9.88236784E-6	3.66243466E-5	2.97754919E-5	9.00873202E-5	4.81750376E-4
4.84660000E+5	1.59999169E+1	0.00000000E+0	0.00000000E+0	1.37383418E-5	9.83955977E-6	3.66938188E-5	2.96302890E-5	8.99020094E-5	4.80759408E-4
4.91276000E+5	1.65000178E+1	0.00000000E+0	0.00000000E+0	1.38730334E-5	9.87501560E-6	3.65200444E-5	2.95967644E-5	8.98648578E-5	4.80560737E-4
4.97769000E+5	1.69999292E+1	0.00000000E+0	0.00000000E+0	1.38716833E-5	9.86559807E-6	3.64126189E-5	2.98742628E-5	9.00241631E-5	4.81412637E-4
5.04434000E+5	1.75000691E+1	0.00000000E+0	0.00000000E+0	1.38281243E-5	9.88581000E-6	3.64763333E-5	2.97483033E-5	8.99385708E-5	4.80954924E-4
5.11147000E+5	1.80000583E+1	0.00000000E+0	0.00000000E+0	1.37340920E-5	9.85337315E-6	3.64027216E-5	2.96916163E-5	8.96818030E-5	4.79581834E-4
5.17658000E+5	1.84998231E+1	0.00000000E+0	0.00000000E+0	1.38776945E-5	9.80831502E-6	3.63450720E-5	2.95013791E-5	8.95324605E-5	4.78783211E-4
5.24025000E+5	1.90001262E+1	0.00000000E+0	0.00000000E+0	1.37306140E-5	9.90058302E-6	3.63592787E-5	2.95784181E-5	8.95688939E-5	4.78978042E-4
5.30408000E+5	1.95000503E+1	0.00000000E+0	0.00000000E+0	1.36819111E-5	9.82458709E-6	3.62674727E-5	2.94210678E-5	8.91950386E-5	4.76978816E-4
5.36799000E+5	1.99999916E+1	0.00000000E+0	0.00000000E+0	1.38094263E-5	9.85088764E-6	3.62329407E-5	2.95386439E-5	8.94318985E-5	4.78245447E-4
5.42947000E+5	2.05000765E+1	0.00000000E+0	0.00000000E+0	1.36989103E-5	9.80421422E-6	3.61387236E-5	2.96090847E-5	8.92509328E-5	4.77277716E-4
5.49752000E+5	2.09999785E+1	0.00000000E+0	0.00000000E+0	1.37636440E-5	9.88082109E-6	3.63417252E-5	2.95588141E-5	8.95450043E-5	4.78850290E-4
5.55655000E+5	2.15000260E+1	0.00000000E+0	0.00000000E+0	1.38015227E-5	9.86238836E-6	3.65968599E-5	2.95537447E-5	8.98145157E-5	4.80291528E-4
5.61745000E+5	2.20000001E+1	0.00000000E+0	0.00000000E+0	1.36552499E-5	9.89205657E-6	3.63301320E-5	2.95437103E-5	8.94211488E-5	4.78187962E-4
5.67807000E+5	2.25000531E+1	0.00000000E+0	0.00000000E+0	1.38196753E-5	9.79377148E-6	3.64640965E-5	2.94913327E-5	8.95688760E-5	4.78977946E-4
5.73866000E+5	2.30000445E+1	0.00000000E+0	0.00000000E+0	1.38012545E-5	9.87951277E-6	3.64514484E-5	2.96272134E-5	8.97594291E-5	4.79996947E-4
5.79638000E+5	2.34999069E+1	0.00000000E+0	0.00000000E+0	1.37784766E-5	9.88384007E-6	3.63904371E-5	2.95666402E-5	8.96193939E-5	4.79248096E-4
5.85429000E+5	2.39999790E+1	0.00000000E+0	0.00000000E+0	1.36906938E-5	9.79583976E-6	3.62652554E-5	2.95378392E-5	8.92896282E-5	4.77484643E-4
5.91299000E+5	2.45000002E+1	0.00000000E+0	0.00000000E+0	1.37665854E-5	9.87674712E-6	3.63992973E-5	2.96832418E-5	8.97258716E-5	4.79817495E-4
5.97214000E+5	2.49999855E+1	0.00000000E+0	0.00000000E+0	1.37894736E-5	9.83554242E-6	3.62028165E-5	2.96194827E-5	8.94473153E-5	4.78327889E-4
6.12664000E+5	2.30003471E+1	0.00000000E+0	0.00000000E+0	1.38037430E-5	9.86245690E-6	3.63634868E-5	2.95399016E-5	8.95695883E-5	4.78981755E-4
6.20039000E+5	2.35002679E+1	0.00000000E+0	0.00000000E+0	1.38994353E-5	9.86178039E-6	3.63419099E-5	2.95060491E-5	8.96091747E-5	4.79193447E-4
6.25797000E+5	2.40000731E+1	0.00000000E+0	0.00000000E+0	1.38041870E-5	9.84092770E-6	3.61769123E-5	2.98155433E-5	8.96375703E-5	4.79345296E-4
6.31691000E+5	2.45000002E+1	0.00000000E+0	0.00000000E+0	1.37467371E-5	9.85120950E-6	3.63696768E-5	2.95744723E-5	8.95420956E-5	4.78834736E-4
6.37626000E+5	2.49998323E+1	0.00000000E+0	0.00000000E+0	1.36467235E-5	9.94216024E-6	3.66122200E-5	2.96943342E-5	8.98954379E-5	4.80724267E-4
6.43068000E+5	2.54999046E+1	0.00000000E+0	0.00000000E+0	1.37103574E-5	9.93551432E-6	3.63511665E-5	2.98403716E-5	8.98374098E-5	4.80413956E-4
6.48671000E+5	2.60001583E+1	0.00000000E+0	0.00000000E+0	1.37288378E-5	9.83659444E-6	3.63255872E-5	2.95406049E-5	8.94316243E-5	4.78243980E-4
6.54259000E+5	2.64999888E+1	0.00000000E+0	0.00000000E+0	1.38267295E-5	9.81198964E-6	3.64477171E-5	2.95385724E-5	8.96250087E-5	4.79278121E-4
6.59810000E+5	2.70000400E+1	0.00000000E+0	0.00000000E+0	1.38832079E-5	9.91203605E-6	3.64059879E-5	2.98550731E-5	9.00563049E-5	4.81584518E-4
6.65216000E+5	2.75000324E+1	0.00000000E+0	0.00000000E+0	1.38628261E-5	9.81292246E-6	3.65397020E-5	2.98504627E-5	9.00659132E-5	4.81635900E-4
6.70646000E+5	2.79999811E+1	0.00000000E+0	0.00000000E+0	1.37492017E-5	9.80330226E-6	3.63602205E-5	2.96446269E-5	8.95573514E-5	4.78916318E-4
6.75928000E+5	2.84996496E+1	0.00000000E+0	0.00000000E+0	1.38279365E-5	9.83002005E-6	3.64414616E-5	2.94772720E-5	8.95766901E-5	4.79019733E-4
6.81339000E+5	2.90000103E+1	0.00000000E+0	0.00000000E+0	1.36860029E-5	9.91868495E-6	3.63624467E-5	2.95728838E-5	8.95400184E-5	4.78823628E-4
6.86788000E+5	2.95006078E+1	0.00000000E+0	0.00000000E+0	1.38022469E-5	9.86402152E-6	3.63463833E-5	2.96245998E-5	8.96372515E-5	4.79343591E-4
6.92242000E+5	2.99999533E+1	0.00000000E+0	0.00000000E+0	1.37368070E-5	9.87447916E-6	3.65463241E-5	2.98275894E-5	8.99851996E-5	4.81204276E-4
6.97497000E+5	3.05002947E+1	0.00000000E+0	0.00000000E+0	1.37914555E-5	9.82065914E-6	3.63523646E-5	2.95611566E-5	8.95256358E-5	4.78746715E-4
7.02787000E+5	3.10000875E+1	0.00000000E+0	0.00000000E+0	1.37267546E-5	9.85436259E-6	3.63005830E-5	2.98425144E-5	8.97242146E-5	4.79808634E-4
7.08142000E+5	3.14999842E+1	0.00000000E+0	0.00000000E+0	1.36544602E-5	9.84089194E-6	3.65474744E-5	2.93499594E-5	8.93927860E-5	4.78036289E-4
7.13469000E+5	3.20001102E+1	0.00000000E+0	0.00000000E+0	1.37330638E-5	9.86967204E-6	3.63882674E-5	2.94296985E-5	8.94207018E-5	4.78185571E-4
7.18723000E+5	3.24999667E+1	0.00000000E+0	0.00000000E+0	1.37337403E-5	9.92452621E-6	3.62232251E-5	2.98017776E-5	8.96832692E-5	4.79589675E-4
7.24024000E+5	3.29994843E+1	0.00000000E+0	0.00000000E+0	1.37694971E-5	9.89549278E-6	3.66062595E-5	2.95332050E-5	8.98044544E-5	4.80237724E-4
7.29183000E+5	3.35004683E+1	0.00000000E+0	0.00000000E+0	1.36618601E-5	9.86375330E-6	3.66077735E-5	2.94514691E-5	8.95848560E-5	4.79063401E-4
7.34353000E+5	3.40004539E+1	0.00000000E+0	0.00000000E+0	1.37907670E-5	9.87631200E-6	3.65564628E-5	2.97080731E-5	8.99316150E-5	4.80917727E-4
7.39672000E+5	3.45002162E+1	0.00000000E+0	0.00000000E+0	1.38606088E-5	9.91607725E-6	3.63195224E-5	2.96076542E-5	8.97038626E-5	4.79699800E-4
7.44818000E+5	3.49997683E+1	0.00000000E+0	0.00000000E+0	1.37590872E-5	9.87046181E-6	3.64160015E-5	2.98484868E-5	8.98940372E-5	4.80716777E-4
7.49981000E+5	3.55001952E+1	0.00000000E+0	0.00000000E+0	1.37198792E-5	9.86471294E-6	3.63903327E-5	2.95706218E-5	8.95455467E-5	4.78853191E-4
7.55149000E+5	3.59996723E+1	0.00000000E+0	0.00000000E+0	1.38093339E-5	9.82908724E-6	3.61636563E-5	2.94331943E-5	8.92352717E-5	4.77193966E-4
7.60088000E+5	3.65003367E+1	0.00000000E+0	0.00000000E+0	1.37708502E-5	9.84330891E-6	3.63651796E-5	2.95893734E-5	8.95687121E-5	4.78977070E-4
7.65219000E+5	3.70001276E+1	0.00000000E+0	0.00000000E+0	1.37138353E-5	9.75767490E-6	3.61242874E-5	2.94235771E-5	8.90193747E-5	4.76039437E-4
7.70368000E+5	3.75001164E+1	0.00000000E+0	0.00000000E+0	1.37120055E-5	9.87394868E-6	3.64419504E-5	2.96452707E-5	8.96731752E-5	4.79535696E-4
7.75416000E+5	3.79996392E+1	0.00000000E+0	0.00000000E+0	1.36262254E-5	9.88072275E-6	3.63793595E-5	2.96784228E-5	8.95647305E-5	4.78955778E-4
7.80427000E+5	3.85000491E+1	0.00000000E+0	0.00000000E+0	1.37289660E-5	9.88638519E-6	3.65090861E-5	2.97094917E-5	8.98339289E-5	4.80395342E-4
7.85344000E+5	3.90006355E+1	0.00000000E+0	0.00000000E+0	1.37353854E-5	9.84871207E-6	3.63204642E-5	2.96631759E-5	8.95677375E-5	4.78971858E-4
7.90382000E+5	3.94997441E+1	0.00000000E+0	0.00000000E+0	1.37411492E-5	9.84895943E-6	3.63977267E-5	2.96296185E-5	8.96174538E-5	4.79237721E-4
7.95409000E+5	4.00001537E+1	0.00000000E+0	0.00000000E+0	1.37632178E-5	9.82959388E-6	3.62845136E-5	2.96415007E-5	8.95188260E-5	4.78710299E-4
8.00203000E+5	4.04999978E+1	0.00000000E+0	0.00000000E+0	1.38745503E-5	9.89428877E-6	3.65625783E-5	2.97670757E-5	9.00984931E-5	4.81810124E-4
8.05212000E+5	4.09999887E+1	0.00000000E+0	0.00000000E+0	1.37508528E-5	9.82555566E-6	3.61796184E-5	2.94319486E-5	8.91879754E-5	4.76941045E-4
8.10045000E+5	4.15000913E+1	0.00000000E+0	0.00000000E+0	1.38170974E-5	9.85876141E-6	3.64347323E-5	2.93161576E-5	8.94267487E-5	4.78217907E-4
8.14873000E+5	4.19995684E+1	0.00000000E+0	0.00000000E+0	1.38148742E-5	9.79863820E-6	3.64503278E-5	2.94199234E-5	8.94837635E-5	4.78522800E-4
8.19668000E+5	4.25005853E+1	0.00000000E+0	0.00000000E+0	1.37524711E-5	9.83620701E-6	3.61782624E-5	2.96528285E-5	8.94197690E-5	4.78180583E-4
8.24671000E+5	4.29994935E+1	0.00000000E+0	0.00000000E+0	1.37642668E-5	9.84602092E-6	3.63081439E-5	2.94939106E-5	8.94123422E-5	4.78140868E-4
8.30282000E+5	4.35005106E+1	0.00000000E+0	0.00000000E+0	1.38166653E-5	9.97727036E-6	3.63498433E-5	2.97066873E-5	8.98504662E-5	4.80483777E-4
8.35119000E+5	4.39998902E+1	0.00000000E+0	0.00000000E+0	1.37642668E-5	9.87861870E-6	3.66075738E-5	2.96227222E-5	8.98731816E-5	4.80605249E-4
8.40003000E+5	4.44993773E+1	0.00000000E+0	0.00000000E+0	1.36247919E-5	9.90917205E-6	3.66004570E-5	2.96070581E-5	8.97414791E-5	4.79900958E-4
8.44791000E+5	4.50009011E+1	0.00000000E+0	0.00000000E+0	1.38885693E-5	9.89895879E-6	3.63590105E-5	2.97576731E-5	8.99042117E-5	4.80771186E-4
8.66467000E+5	2.30002606E+1	0.00000000E+0	0.00000000E+0	1.37115823E-5	9.90219532E-6	3.62371548E-5	2.96030557E-5	8.94539880E-5	4.78363572E-4
8.73361000E+5	2.34995910E+1	0.00000000E+0	0.00000000E+0	1.38417678E-5	9.79944584E-6	3.62995489E-5	2.97119921E-5	8.96527546E-5	4.79426495E-4
8.79138000E+5	2.40001673E+1	0.00000000E+0	0.00000000E+0	1.37283699E-5	9.77396187E-6	3.62712039E-5	2.95575088E-5	8.93310445E-5	4.77706120E-4
8.85042000E+5	2.45000983E+1	0.00000000E+0	0.00000000E+0	1.37083577E-5	9.94083404E-6	3.64393039E-5	2.99775964E-5	9.00660920E-5	4.81636856E-4
8.90954000E+5	2.49999344E+1	0.00000000E+0	0.00000000E+0	1.37926655E-5	9.80816600E-6	3.63327099E-5	2.95677041E-5	8.95012456E-5	4.78616286E-4
8.96380000E+5	2.55000108E+1	0.00000000E+0	0.00000000E+0	1.37798862E-5	9.89380001E-6	3.65244224E-5	2.97243839E-5	8.99224925E-5	4.80868944E-4
9.01948000E+5	2.59998821E+1	0.00000000E+0	0.00000000E+0	1.37792514E-5	9.95602130E-6	3.64870502E-5	2.96300774E-5	8.98524004E-5	4.80494120E-4
9.07547000E+5	2.65001035E+1	0.00000000E+0	0.00000000E+0	1.38431268E-5	9.88586365E-6	3.63005652E-5	2.95472449E-5	8.95768004E-5	4.79020323E-4
9.13112000E+5	2.70000400E+1	0.00000000E+0	0.00000000E+0	1.38091134E-5	9.86174165E-6	3.66173192E-5	2.96607083E-5	8.99488825E-5	4.81010067E-4
9.18578000E+5	2.75000324E+1	0.00000000E+0	0.00000000E+0	1.38397025E-5	9.81971739E-6	3.62747504E-5	2.95480376E-5	8.94822078E-5	4.78514480E-4
9.24010000E+5	2.79999170E+1	0.00000000E+0	0.00000000E+0	1.36056708E-5	9.84073399E-6	3.62981989E-5	2.96687728E-5	8.94133764E-5	4.78146398E-4
9.29315000E+5	2.84996496E+1	0.00000000E+0	0.00000000E+0	1.36250125E-5	9.78078363E-6	3.63923980E-5	2.95946067E-5	8.93928009E-5	4.78036368E-4
9.34743000E+5	2.90000790E+1	0.00000000E+0	0.00000000E+0	1.37517528E-5	9.85370694E-6	3.63184376E-5	2.96584493E-5	8.95823466E-5	4.79049982E-4
9.40194000E+5	2.95002522E+1	0.00000000E+0	0.00000000E+0	1.37037443E-5	9.91920649E-6	3.64026828E-5	2.96103513E-5	8.96359849E-5	4.79336817E-4
9.45634000E+5	2.99999533E+1	0.00000000E+0	0.00000000E+0	1.38289856E-5	9.92405533E-6	3.66115047E-5	2.95133209E-5	8.98778665E-5	4.80630302E-4
9.50890000E+5	3.05001427E+1	0.00000000E+0	0.00000000E+0	1.36363463E-5	9.85904155E-6	3.63086863E-5	2.96259021E-5	8.94299763E-5	4.78235167E-4
9.56153000E+5	3.09998519E+1	0.00000000E+0	0.00000000E+0	1.37890624E-5	9.88744317E-6	3.62823500E-5	2.97404891E-5	8.96993446E-5	4.79675640E-4
9.61447000E+5	3.14999842E+1	0.00000000E+0	0.00000000E+0	1.38904677E-5	9.87850545E-6	3.63923116E-5	2.94136112E-5	8.95748960E-5	4.79010139E-4
9.66753000E+5	3.19999429E+1	0.00000000E+0	0.00000000E+0	1.37495176E-5	9.88877534E-6	3.61797257E-5	2.96684539E-5	8.94864725E-5	4.78537286E-4
9.72010000E+5	3.25001393E+1	0.00000000E+0	0.00000000E+0	1.37104706E-5	9.87618087E-6	3.63202466E-5	2.95754706E-5	8.94823688E-5	4.78515341E-4
9.77317000E+5	3.29995733E+1	0.00000000E+0	0.00000000E+0	1.38087647E-5	9.87418412E-6	3.64121719E-5	2.97559863E-5	8.98511070E-5	4.80487203E-4
9.82462000E+5	3.35001932E+1	0.00000000E+0	0.00000000E+0	1.37413518E-5	9.85719083E-6	3.62635238E-5	2.95202708E-5	8.93823373E-5	4.77980413E-4
9.87640000E+5	3.40002650E+1	0.00000000E+0	0.00000000E+0	1.37065636E-5	9.78958723E-6	3.64101871E-5	2.93427473E-5	8.92490851E-5	4.77267835E-4
9.92942000E+5	3.44999244E+1	0.00000000E+0	0.00000000E+0	1.39346229E-5	9.82504306E-6	3.62695469E-5	2.94002777E-5	8.94294905E-5	4.78232570E-4
9.98107000E+5	3.50000686E+1	0.00000000E+0	0.00000000E+0	1.37963460E-5	9.74837956E-6	3.63145305E-5	2.94384276E-5	8.92976838E-5	4.77527721E-4
1.00326100E+6	3.55000922E+1	0.00000000E+0	0.00000000E+0	1.38234721E-5	9.81432316E-6	3.63164826E-5	2.94798141E-5	8.94340920E-5	4.78257176E-4
1.00843300E+6	3.59999900E+1	0.00000000E+0	0.00000000E+0	1.37799458E-5	9.83446954E-6	3.64623888E-5	2.96091651E-5	8.96859693E-5	4.79604114E-4
1.01339700E+6	3.65001190E+1	0.00000000E+0	0.00000000E+0	1.37493180E-5	9.85316156E-6	3.63289549E-5	2.95352315E-5	8.94666659E-5	4.78431369E-4
1.01855900E+6	3.69997920E+1	0.00000000E+0	0.00000000E+0	1.38502972E-5	9.92241918E-6	3.63746895E-5	2.96737438E-5	8.98211497E-5	4.80327004E-4
1.02360600E+6	3.74994270E+1	0.00000000E+0	0.00000000E+0	1.38454007E-5	9.86994325E-6	3.63046272E-5	2.97051853E-5	8.97251564E-5	4.79813671E-4
1.02864300E+6	3.79998752E+1	0.00000000E+0	0.00000000E+0	1.38826953E-5	9.99589384E-6	3.68593021E-5	2.96603745E-5	9.03982658E-5	4.83413186E-4
1.03369300E+6	3.85007758E+1	0.00000000E+0	0.00000000E+0	1.37603806E-5	9.88798557E-6	3.64490195E-5	2.99026167E-5	9.00000024E-5	4.81283435E-4
1.03850300E+6	3.89996412E+1	0.00000000E+0	0.00000000E+0	1.37779044E-5	9.85758720E-6	3.64683046E-5	2.96790218E-5	8.97828179E-5	4.80122021E-4
1.04352200E+6	3.95005090E+1	0.00000000E+0	0.00000000E+0	1.38357566E-5	9.84266518E-6	3.60600216E-5	2.94842249E-5	8.92226683E-5	4.77126569E-4
1.04857200E+6	4.00001537E+1	0.00000000E+0	0.00000000E+0	1.37520628E-5	9.94792997E-6	3.64472343E-5	2.99384451E-5	9.00856722E-5	4.81741562E-4
1.05340400E+6	4.05001318E+1	0.00000000E+0	0.00000000E+0	1.39006244E-5	9.84076677E-6	3.63056614E-5	2.95804208E-5	8.96274733E-5	4.79291301E-4
1.05846800E+6	4.09999887E+1	0.00000000E+0	0.00000000E+0	1.38009416E-5	9.87644611E-6	3.64434554E-5	2.94347292E-5	8.95555722E-5	4.78906803E-4
1.06334500E+6	4.14996691E+1	0.00000000E+0	0.00000000E+0	1.37552337E-5	9.91931378E-6	3.63739295E-5	2.96484506E-5	8.96969276E-5	4.79662715E-4
1.06818300E+6	4.19998567E+1	0.00000000E+0	0.00000000E+0	1.39653878E-5	9.91138040E-6	3.63603158E-5	2.97634041E-5	9.00004882E-5	4.81286033E-4
1.07298700E+6	4.25004377E+1	0.00000000E+0	0.00000000E+0	1.36994497E-5	9.89474474E-6	3.66127773E-5	2.95811688E-5	8.97881406E-5	4.80150485E-4
1.07803400E+6	4.29994935E+1	0.00000000E+0	0.00000000E+0	1.38003813E-5	9.86490665E-6	3.63211288E-5	2.95699542E-5	8.95563709E-5	4.78911074E-4
1.08275800E+6	4.35000467E+1	0.00000000E+0	0.00000000E+0	1.37704866E-5	9.80782030E-6	3.61827327E-5	2.94737374E-5	8.92347770E-5	4.77191321E-4
1.08747200E+6	4.39997320E+1	0.00000000E+0	0.00000000E+0	1.37349980E-5	9.89247082E-6	3.62098052E-5	2.95645421E-5	8.94018161E-5	4.78084578E-4
1.09248400E+6	4.45006718E+1	0.00000000E+0	0.00000000E+0	1.36066751E-5	9.91455733E-6	3.63062783E-5	2.95946067E-5	8.94221174E-5	4.78193141E-4
1.09716600E+6	4.49994119E+1	0.00000000E+0	0.00000000E+0	1.37992458E-5	9.87490235E-6	3.62202270E-5	2.94409012E-5	8.93352764E-5	4.77728751E-4
