G:\BEAR_storage\User_Experiments\20220317_arneodo\Bpm\file(1)_bpm_0049.txt
Ring Energy (GeV): 2
Lifetime (hours): 15.125
Scan beginning: 3/19/2022	10:23:30 AM
Ring current (mA): 309.07
Source position: x (mm): -0.003 x' (mrad): 0.002 y (mm): 0.001 y' (mrad): 0.003
Scan end: 3/19/2022	10:28:55 AM
Ring current (mA): 308.55
Source position: x (mm): -0.002 x' (mrad): 0.002 y (mm): 0.002 y' (mrad): 0.003

SCAN TYPE: PHOTON ENERGY VS VAR_1 VS VAR_2

FILE INFO: FILE INFO:

SCAN PARAMETERS
waiting time (ms): 1000
Number of scans: 1
Current scan number: 1
DARK OFF 
PREDARK OFF 

SCAN PARAMETERS
Regions configuration: 
number of regions: 7
Mirror grating scan: on
Timed acquisition: off
Region 1:
Initial energy (eV): 40.000000
Final energy (eV): 72.000000
Delta energy (eV): 1.000000
Deviation angle choice: Higher order rejection
Deviation angle (°): NaN
Al filter
G1200 channel
range keithley B 20 nA
range keithley C 2 uA
range keithley A 20 nA
Var_1: PsiC 0.000000
Var_2: PhiM0.000000
Bias CEM (V): 0.000000
Bias Keithley B (V): -30.000000
Name region: 
Region 2:
Initial energy (eV): 70.000000
Final energy (eV): 102.000000
Delta energy (eV): 1.000000
Deviation angle choice: Higher order rejection
Deviation angle (°): NaN
Si filter
G1200 channel
range keithley B 20 nA
range keithley C 2 uA
range keithley A 20 nA
Var_1: PsiC 0.000000
Var_2: PhiM0.000000
Bias CEM (V): 0.000000
Bias Keithley B (V): -30.000000
Name region: 
Region 3:
Initial energy (eV): 98.000000
Final energy (eV): 260.000000
Delta energy (eV): 1.000000
Deviation angle choice: Higher order rejection
Deviation angle (°): NaN
Full Beam
G1200 channel
range keithley B 20 nA
range keithley C 2 uA
range keithley A 200 nA
Var_1: PsiC 0.000000
Var_2: PhiM0.000000
Bias CEM (V): 0.000000
Bias Keithley B (V): -30.000000
Name region: 
Region 4:
Initial energy (eV): 255.000000
Final energy (eV): 320.000000
Delta energy (eV): 1.000000
Deviation angle choice: Higher order rejection
Deviation angle (°): NaN
filter Ag 0.6 um
G1200 channel
range keithley B 200 pA
range keithley C 2 uA
range keithley A 200 pA
Var_1: PsiC 0.000000
Var_2: PhiM0.000000
Bias CEM (V): 0.000000
Bias Keithley B (V): -30.000000
Name region: 
Region 5:
Initial energy (eV): 255.000000
Final energy (eV): 320.000000
Delta energy (eV): 1.000000
Deviation angle choice: Higher order rejection
Deviation angle (°): NaN
Full Beam
G1200 channel
range keithley B 200 pA
range keithley C 2 uA
range keithley A 200 pA
Var_1: PsiC 0.000000
Var_2: PhiM0.000000
Bias CEM (V): 0.000000
Bias Keithley B (V): -30.000000
Name region: 
Region 6:
Initial energy (eV): 315.000000
Final energy (eV): 1200.000000
Delta energy (eV): 5.000000
Deviation angle choice: Higher order rejection
Deviation angle (°): NaN
Full Beam
G1200 channel
range keithley B 20 nA
range keithley C 2 uA
range keithley A 20 nA
Var_1: PsiC 0.000000
Var_2: PhiM0.000000
Bias CEM (V): 0.000000
Bias Keithley B (V): -30.000000
Name region: 
Region 7:
Initial energy (eV): 1190.000000
Final energy (eV): 1500.000000
Delta energy (eV): 5.000000
Deviation angle choice: Higher order rejection
Deviation angle (°): NaN
filter Ag 0.6 um
G1200 channel
range keithley B 200 pA
range keithley C 2 uA
range keithley A 200 pA
Var_1: PsiC 0.000000
Var_2: PhiM0.000000
Bias CEM (V): 0.000000
Bias Keithley B (V): -30.000000
Name region: 

BEAR MONOCHROMATOR CONFIGURATION: 
Current Grating Position:     160137.10
Current Mirror Position: 298443.8
Current Grating: G1200
P2 phiz position:  0.0000
Mono axis position: 25.0000
Current Photon Energy (eV): 1499.954
Current Deviation Angle: 175.800
Vertical Exit Slits (um): 100.000
Exit slit y axis position: 1.3625
Horizontal Exit Slits (um):  889.156
Exit slit z axis position: 1.9229
Mitutoyo position (mm): 

Dose on sample (mJ/cm^2): NaN

ENERGY CALIBRATION:
offset grating G1200: yes
Delta 0 order G1200:  -800.0
offset grating G1800: not
Delta 0 order G1800:  0.0
offset grating GNIM: not
Delta 0 order GNIM:  0.0
ZERO ORDER POSITIONS:
Grating G1200: Mirror position:  4938.0
Grating position: -105355.0
Grating G1800: 
Mirror position:  4938.0
Grating position: -106345.0
Grating GNIM: 
Mirror position:  10000.0
Grating position: 227300.0

Initial filter: Ag filter 0.6 um

EXPERIMENTAL CHAMBER CONFIGURATION: 
PsiC (deg):   -0.000186
Phi Analyzer (degrees): 89.992308
Theta Manipulator (degrees): -44.000040
Theta Analyzer (degrees): -135.001468
PhiM (degrees): -0.004103
XM (mm): 0.000713
YM (mm): 19.932987
ZM (mm): (Warning: for kinetic energy scans, 
this parameter is given in the scan settings) 
-6.601438
TiltM (°): 0.000138

ELECTRON ANALYZER CONFIGURATION: 
Current Kinetik energy (eV): 35.0
Mode: DE = COST
Pass Energy (eV):  50.000
CEM: ON
Bias Front-Back CEM (V): 3499.561
Bias Back-Collector CEM (V): 100.874
Bias Retard-Front CEM: 100.087COIL VALUES
Ix (amps):2.820
Iy (amps): 6.789
Iz (amps): 37.337

POLARIZATION SELECTOR CONFIGURATION:
Psi1 (rad): -0.001665535
Psi2 (rad): 0.001417093
Z min position (mm): 46.599650
DZ position (mm): 18.599100
Zmin 0 (mm): 66.500000
DZ0 (mm): 53.000000

BEAM SELECTOR CONFIGURATION:
Zmin position (mm): NaN
DZ position (mm): NaN
Y+ position (mm): NaN
Y- position (mm): NaN

CHANNEL ELECTRON MULTIPLIER CONFIGURATION:
CEM configured: OFF
Bias CEM: 0.000000

FLUORESCENCE DETECTOR CONFIGURATION:
Not configured

LUMINESCENCE MONOCHROMATOR CONFIGURATION:
Optical fiber position (mm): 0.000000
Optical fiber Switch inside: OFF
Optical fiber Switch outside: ON
Monochromator wavelength (A): 0.000000
Limit Switches: ON

I0 MONITOR PARAMETERS:
I0 detector position(mm): -0.000000E+0
Lower switch: OFF
Upper switch: OFF
Valve status:open

PRESSURE PARAMETERS:
Monitor chamber pressure (mbar): 8.943e-10
Experimental chamber pressure -ION GAUGE-(mbar): 0.000000E+0

XMCD PARAMETERS:
Xmcd OFF
Xmcd Direction -
Xmcd current (A): 0.000000

Gated scan off

Instrument 1: AMMETER KEITHLEY 6517A B
Measure type: Current
range type: set range value
range value (ampere):  200 pA
Integration time:  set NPLC value
NPLC value: 10.000
Digital filter count: 2
SAMPLE BIAS (V): -30.000
Vsource: ON
Output Voltage value: 30.000
Vsource range: 1000 V

Range Keithley B changed to 20 nA

Range Keithley B changed to 200 pA

Range Keithley B changed to 20 nA

Range Keithley B changed to 200 pA

Range Keithley B changed to 20 nA

Range Keithley B changed to 200 pA

Range Keithley B changed to 20 nA

Range Keithley B changed to 200 nA

Range Keithley B changed to 200 pA

Range Keithley B changed to 20 nA

Range Keithley B changed to 200 pA

Range Keithley B changed to 20 nA

Range Keithley B changed to 200 pA

Range Keithley B changed to 20 nA

Range Keithley B changed to 200 pA

Range Keithley B changed to 20 nA

Range Keithley B changed to 200 pA

Range Keithley B changed to 20 nA

Range Keithley B changed to 200 pA

Range Keithley B changed to 20 nA

Range Keithley B changed to 200 pA

Range Keithley B changed to 20 nA

Range Keithley B changed to 200 pA

Range Keithley B changed to 20 nA

Range Keithley B changed to 200 pA

Range Keithley B changed to 20 nA

Range Keithley B changed to 200 pA

Range Keithley B changed to 20 nA

Range Keithley B changed to 200 pA

Range Keithley B changed to 20 nA

Range Keithley B changed to 200 pA

Range Keithley B changed to 20 nA

Instrument 2: AMMETER KEITHLEY 6517A A
Measure type: Current
range type: set range value
range value (ampere):  200 nA
Integration time:  set NPLC value
NPLC value: 10.000
Digital filter count: 2
Vsource: OFF
Output Voltage value: -0.000
Vsource range: 100 V
Trigger source: bus

Range Keithley A changed to 20 nA

Range Keithley A changed to 200 nA

Range Keithley A changed to 200 pA

Range Keithley A changed to 20 nA

Range Keithley A changed to 200 pA

Range Keithley A changed to 20 nA

Range Keithley A changed to 200 nA

Range Keithley A changed to 200 pA

Range Keithley A changed to 20 nA

Range Keithley A changed to 200 pA

Range Keithley A changed to 20 nA

Range Keithley A changed to 200 nA

Range Keithley A changed to 200 pA

Range Keithley A changed to 20 nA

Range Keithley A changed to 200 pA

Range Keithley A changed to 20 nA

Range Keithley A changed to 200 pA

Range Keithley A changed to 20 nA

Range Keithley A changed to 200 pA

Range Keithley A changed to 20 nA

Range Keithley A changed to 200 pA

Range Keithley A changed to 20 nA

Range Keithley A changed to 200 nA

Range Keithley A changed to 200 pA

Range Keithley A changed to 20 nA

Range Keithley A changed to 200 pA

Range Keithley A changed to 20 nA

Range Keithley A changed to 200 nA

Range Keithley A changed to 200 pA

Range Keithley A changed to 20 nA

Range Keithley A changed to 200 nA

Range Keithley A changed to 200 pA

Range Keithley A changed to 20 nA

Range Keithley A changed to 200 pA

Range Keithley A changed to 20 nA

Range Keithley A changed to 200 pA

Range Keithley A changed to 20 nA

Range Keithley A changed to 200 nA

Range Keithley A changed to 200 pA

Range Keithley A changed to 20 nA

Range Keithley A changed to 200 pA

Range Keithley A changed to 20 nA

Range Keithley A changed to 200 nA

Range Keithley A changed to 20 nA

Range Keithley A changed to 200 nA

Range Keithley A changed to 200 pA

Range Keithley A changed to 20 nA

Range Keithley A changed to 200 nA

Range Keithley A changed to 2 uA

Range Keithley A changed to 20 nA

Range Keithley A changed to 200 nA

Range Keithley A changed to 2 uA

Range Keithley A changed to 20 nA

Range Keithley A changed to 200 nA

Range Keithley A changed to 200 pA

Range Keithley A changed to 2 uA

Range Keithley A changed to 20 nA

Range Keithley A changed to 200 nA

Range Keithley A changed to 200 pA

Range Keithley A changed to 20 nA

Range Keithley A changed to 2 uA

Range Keithley A changed to 20 nA

Range Keithley A changed to 200 nA

Range Keithley A changed to 20 nA

Range Keithley A changed to 200 nA

Range Keithley A changed to 200 pA

Range Keithley A changed to 2 uA

Range Keithley A changed to 20 nA

Range Keithley A changed to 200 nA

Range Keithley A changed to 20 nA

Range Keithley A changed to 200 nA

Range Keithley A changed to 200 pA

Range Keithley A changed to 20 nA

Range Keithley A changed to 200 nA

Instrument 3: AMMETER KEITHLEY 6517A C 
Measure type: Current
range type: set range value
range value (ampere):  2 uA
Integration time:  set NPLC value
NPLC value: 10.000
Digital filter count: 2
Vsource: OFF
Output Voltage value: -0.000
Vsource range: 100 V
Trigger source: bus


Range Keithley C changed to 20 uA


Range Keithley C changed to 2 uA


Range Keithley C changed to 200 uA


Range Keithley C changed to 2 uA


Range Keithley C changed to 20 uA


Range Keithley C changed to 200 uA


Range Keithley C changed to 2 uA


Range Keithley C changed to 20 uA


Range Keithley C changed to 2 uA


Range Keithley C changed to 20 uA


Range Keithley C changed to 200 uA


Range Keithley C changed to 2 uA


Range Keithley C changed to 20 uA


Range Keithley C changed to 2 uA


________________________________________________________________________________

RelativeTime (msec)	Photon Energy	Var_1	Var_2	a) I_1 (Amps)	b) I_2 (Amps)	d) I_3 (Amps)	c) I_4 (Amps)	I_BPM_sum (Amps)	Delta Z(mm)	
________________________________________________________________________________

5.36600000E+3	3.99996474E+1	0.00000000E+0	0.00000000E+0	1.38075756E-5	9.75956139E-6	3.63426103E-5	2.93869411E-5	8.92966884E-5	4.77522398E-4
1.06570000E+4	4.09997476E+1	0.00000000E+0	0.00000000E+0	1.39053242E-5	9.81947003E-6	3.61681415E-5	2.94920867E-5	8.93850224E-5	4.77994772E-4
1.48210000E+4	4.20000038E+1	0.00000000E+0	0.00000000E+0	1.39046984E-5	9.86732362E-6	3.61980362E-5	2.96468472E-5	8.96169054E-5	4.79234788E-4
1.89410000E+4	4.30000372E+1	0.00000000E+0	0.00000000E+0	1.37659715E-5	9.80590997E-6	3.61132814E-5	2.93072378E-5	8.89924006E-5	4.75895191E-4
2.30820000E+4	4.39999067E+1	0.00000000E+0	0.00000000E+0	1.38064639E-5	9.86659048E-6	3.63824947E-5	2.94697469E-5	8.95252960E-5	4.78744899E-4
2.71110000E+4	4.49998872E+1	0.00000000E+0	0.00000000E+0	1.37988852E-5	9.85562025E-6	3.62122877E-5	2.95228397E-5	8.93896329E-5	4.78019427E-4
3.10900000E+4	4.59999518E+1	0.00000000E+0	0.00000000E+0	1.38214783E-5	9.80822859E-6	3.62143709E-5	2.94766044E-5	8.93206822E-5	4.77650707E-4
3.50540000E+4	4.70000736E+1	0.00000000E+0	0.00000000E+0	1.39407741E-5	9.84556792E-6	3.62555517E-5	2.94528519E-5	8.94947457E-5	4.78581528E-4
3.90320000E+4	4.80000110E+1	0.00000000E+0	0.00000000E+0	1.38541000E-5	9.89641367E-6	3.61885591E-5	2.94713473E-5	8.94104200E-5	4.78130588E-4
4.28990000E+4	4.89997604E+1	0.00000000E+0	0.00000000E+0	1.38878839E-5	9.80609176E-6	3.60780103E-5	2.94124102E-5	8.91843962E-5	4.76921905E-4
4.67660000E+4	5.00000335E+1	0.00000000E+0	0.00000000E+0	1.39508562E-5	9.81172440E-6	3.62677528E-5	2.94786757E-5	8.95090091E-5	4.78657802E-4
5.06800000E+4	5.10000363E+1	0.00000000E+0	0.00000000E+0	1.38503449E-5	9.92414474E-6	3.58623905E-5	2.95757389E-5	8.92126190E-5	4.77072829E-4
5.45190000E+4	5.20000085E+1	0.00000000E+0	0.00000000E+0	1.37643890E-5	9.78136477E-6	3.61911489E-5	2.95710450E-5	8.93079477E-5	4.77582608E-4
5.82460000E+4	5.29995409E+1	0.00000000E+0	0.00000000E+0	1.38577567E-5	9.85353110E-6	3.60380007E-5	2.96286678E-5	8.93779563E-5	4.77956986E-4
6.21260000E+4	5.40004156E+1	0.00000000E+0	0.00000000E+0	1.37838917E-5	9.87181781E-6	3.61315442E-5	2.95104032E-5	8.92976569E-5	4.77527577E-4
6.58930000E+4	5.49999130E+1	0.00000000E+0	0.00000000E+0	1.39823781E-5	9.80291185E-6	3.61868067E-5	2.93369447E-5	8.93090414E-5	4.77588457E-4
6.96160000E+4	5.59999436E+1	0.00000000E+0	0.00000000E+0	1.38564573E-5	9.89361523E-6	3.63541199E-5	2.93131208E-5	8.94173133E-5	4.78167451E-4
7.33860000E+4	5.69999203E+1	0.00000000E+0	0.00000000E+0	1.38232039E-5	9.86534773E-6	3.61691190E-5	2.95281267E-5	8.93857973E-5	4.77998916E-4
7.71210000E+4	5.79998436E+1	0.00000000E+0	0.00000000E+0	1.38256358E-5	9.91564809E-6	3.62292512E-5	2.96058303E-5	8.95763653E-5	4.79017996E-4
8.08400000E+4	5.89999911E+1	0.00000000E+0	0.00000000E+0	1.37959705E-5	9.88370298E-6	3.62503691E-5	2.92486077E-5	8.91786503E-5	4.76891178E-4
8.44120000E+4	5.99995491E+1	0.00000000E+0	0.00000000E+0	1.38160364E-5	9.81863854E-6	3.60904796E-5	2.94881498E-5	8.92133044E-5	4.77076494E-4
8.80130000E+4	6.10001462E+1	0.00000000E+0	0.00000000E+0	1.38057755E-5	9.89984392E-6	3.62251921E-5	2.94213777E-5	8.93521892E-5	4.77819194E-4
9.15960000E+4	6.19999875E+1	0.00000000E+0	0.00000000E+0	1.37691872E-5	9.80518279E-6	3.59201564E-5	2.95599496E-5	8.90544759E-5	4.76227144E-4
9.51860000E+4	6.29999726E+1	0.00000000E+0	0.00000000E+0	1.37716369E-5	9.76616261E-6	3.62902595E-5	2.92628353E-5	8.90908944E-5	4.76421895E-4
9.87510000E+4	6.40001187E+1	0.00000000E+0	0.00000000E+0	1.38890045E-5	9.84892665E-6	3.61599250E-5	2.96082025E-5	8.95060586E-5	4.78642025E-4
1.02205000E+5	6.49993804E+1	0.00000000E+0	0.00000000E+0	1.39266746E-5	9.92664217E-6	3.63025232E-5	2.96267813E-5	8.97826212E-5	4.80120969E-4
1.05665000E+5	6.60002841E+1	0.00000000E+0	0.00000000E+0	1.38745861E-5	9.87078963E-6	3.59494073E-5	2.95215135E-5	8.92162966E-5	4.77092495E-4
1.09115000E+5	6.69999268E+1	0.00000000E+0	0.00000000E+0	1.37605892E-5	9.84909056E-6	3.61350043E-5	2.93204492E-5	8.90651332E-5	4.76284135E-4
1.12595000E+5	6.80000684E+1	0.00000000E+0	0.00000000E+0	1.38001548E-5	9.87279831E-6	3.63167985E-5	2.95468574E-5	8.95366090E-5	4.78805396E-4
1.16064000E+5	6.89999669E+1	0.00000000E+0	0.00000000E+0	1.38310836E-5	9.93478417E-6	3.61301972E-5	2.93037718E-5	8.91998368E-5	4.77004475E-4
1.19527000E+5	6.99998166E+1	0.00000000E+0	0.00000000E+0	1.38487326E-5	9.90217148E-6	3.61414416E-5	2.95379108E-5	8.94302564E-5	4.78236665E-4
1.23054000E+5	7.10002157E+1	0.00000000E+0	0.00000000E+0	1.37586819E-5	9.86750244E-6	3.61169262E-5	2.90494596E-5	8.87925701E-5	4.74826578E-4
1.26502000E+5	7.19999196E+1	0.00000000E+0	0.00000000E+0	1.37503760E-5	9.89828824E-6	3.61808135E-5	2.92699521E-5	8.90994297E-5	4.76467539E-4
1.38141000E+5	7.00008787E+1	0.00000000E+0	0.00000000E+0	1.37922154E-5	9.83263669E-6	3.61931129E-5	2.94012433E-5	8.92192083E-5	4.77108066E-4
1.42349000E+5	7.09991398E+1	0.00000000E+0	0.00000000E+0	1.38257997E-5	9.83304797E-6	3.62101747E-5	2.93807124E-5	8.92497348E-5	4.77271309E-4
1.45807000E+5	7.20000218E+1	0.00000000E+0	0.00000000E+0	1.37712406E-5	9.77882561E-6	3.60897912E-5	2.93632870E-5	8.90031444E-5	4.75952644E-4
1.49164000E+5	7.29994814E+1	0.00000000E+0	0.00000000E+0	1.38765411E-5	9.81245456E-6	3.61039443E-5	2.94259077E-5	8.92188477E-5	4.77106137E-4
1.52490000E+5	7.39998770E+1	0.00000000E+0	0.00000000E+0	1.38593869E-5	9.91715609E-6	3.62434967E-5	2.95358991E-5	8.95559388E-5	4.78908764E-4
1.55930000E+5	7.50003514E+1	0.00000000E+0	0.00000000E+0	1.38613151E-5	9.85774515E-6	3.62973048E-5	2.94700032E-5	8.94863682E-5	4.78536729E-4
1.59298000E+5	7.59998981E+1	0.00000000E+0	0.00000000E+0	1.38008343E-5	9.85805212E-6	3.64755316E-5	2.93925320E-5	8.95269501E-5	4.78753744E-4
1.62607000E+5	7.70001504E+1	0.00000000E+0	0.00000000E+0	1.38465451E-5	9.93448614E-6	3.63892122E-5	2.95084631E-5	8.96787065E-5	4.79565275E-4
1.65910000E+5	7.79999789E+1	0.00000000E+0	0.00000000E+0	1.38892339E-5	9.93397354E-6	3.61759169E-5	2.95109307E-5	8.95100551E-5	4.78663396E-4
1.69221000E+5	7.90000333E+1	0.00000000E+0	0.00000000E+0	1.39350252E-5	9.90282415E-6	3.59829379E-5	2.95964574E-5	8.94172447E-5	4.78167084E-4
1.72549000E+5	7.99999504E+1	0.00000000E+0	0.00000000E+0	1.39498310E-5	9.90626632E-6	3.62616552E-5	2.94730877E-5	8.95908403E-5	4.79095403E-4
1.75891000E+5	8.10000267E+1	0.00000000E+0	0.00000000E+0	1.39616387E-5	9.87881540E-6	3.63259091E-5	2.93263053E-5	8.94926684E-5	4.78570420E-4
1.79236000E+5	8.19998430E+1	0.00000000E+0	0.00000000E+0	1.38948278E-5	9.85071777E-6	3.64210142E-5	2.97030723E-5	8.98696321E-5	4.80586268E-4
1.82434000E+5	8.29998005E+1	0.00000000E+0	0.00000000E+0	1.38392137E-5	9.86523448E-6	3.61223115E-5	2.95546686E-5	8.93814283E-5	4.77975552E-4
1.85630000E+5	8.39995517E+1	0.00000000E+0	0.00000000E+0	1.39393704E-5	9.94181155E-6	3.64032103E-5	2.95178687E-5	8.98022610E-5	4.80225994E-4
1.88843000E+5	8.50004500E+1	0.00000000E+0	0.00000000E+0	1.39492052E-5	9.86987470E-6	3.60733761E-5	2.96690082E-5	8.95614641E-5	4.78938311E-4
1.92031000E+5	8.60001584E+1	0.00000000E+0	0.00000000E+0	1.38757871E-5	9.89417850E-6	3.62645550E-5	2.94819927E-5	8.95165133E-5	4.78697932E-4
1.95251000E+5	8.70000534E+1	0.00000000E+0	0.00000000E+0	1.39822351E-5	9.87161814E-6	3.62575574E-5	2.96260750E-5	8.97374856E-5	4.79879602E-4
1.99197000E+5	8.79998325E+1	0.00000000E+0	0.00000000E+0	1.37880312E-5	9.89274202E-6	3.63534047E-5	2.96062505E-5	8.96404284E-5	4.79360580E-4
2.02463000E+5	8.90000805E+1	0.00000000E+0	0.00000000E+0	1.38507740E-5	9.91322814E-6	3.61643000E-5	2.94991052E-5	8.94274073E-5	4.78221429E-4
2.05682000E+5	9.00000001E+1	0.00000000E+0	0.00000000E+0	1.38910280E-5	1.00071949E-5	3.62452967E-5	2.94884389E-5	8.96319586E-5	4.79315286E-4
2.08893000E+5	9.09997924E+1	0.00000000E+0	0.00000000E+0	1.38354735E-5	9.82247410E-6	3.62934305E-5	2.94560915E-5	8.94074696E-5	4.78114810E-4
2.12104000E+5	9.19998593E+1	0.00000000E+0	0.00000000E+0	1.38883875E-5	9.88957702E-6	3.63377287E-5	2.94502740E-5	8.95659673E-5	4.78962392E-4
2.15295000E+5	9.30003309E+1	0.00000000E+0	0.00000000E+0	1.37587594E-5	9.87206517E-6	3.62880452E-5	2.95339769E-5	8.94528466E-5	4.78357468E-4
2.18487000E+5	9.39998123E+1	0.00000000E+0	0.00000000E+0	1.37678133E-5	9.88198935E-6	3.62258209E-5	2.94771200E-5	8.93527435E-5	4.77822158E-4
2.21678000E+5	9.50001981E+1	0.00000000E+0	0.00000000E+0	1.38149993E-5	9.88093732E-6	3.62443580E-5	2.95045530E-5	8.94448476E-5	4.78314693E-4
2.24879000E+5	9.59995819E+1	0.00000000E+0	0.00000000E+0	1.38232546E-5	9.89157675E-6	3.62001164E-5	2.95232242E-5	8.94381719E-5	4.78278994E-4
2.27939000E+5	9.69996314E+1	0.00000000E+0	0.00000000E+0	1.38712065E-5	9.85272346E-6	3.63010897E-5	2.95783317E-5	8.96033513E-5	4.79162306E-4
2.30999000E+5	9.80002922E+1	0.00000000E+0	0.00000000E+0	1.37736575E-5	9.84935878E-6	3.62286194E-5	2.95132732E-5	8.93649089E-5	4.77887213E-4
2.34043000E+5	9.89997921E+1	0.00000000E+0	0.00000000E+0	1.37571888E-5	9.86503182E-6	3.61157609E-5	2.95408970E-5	8.92788785E-5	4.77427158E-4
2.37147000E+5	1.00000181E+2	0.00000000E+0	0.00000000E+0	1.37930588E-5	9.79308901E-6	3.63622083E-5	2.96005910E-5	8.95489472E-5	4.78871375E-4
2.40229000E+5	1.00999279E+2	0.00000000E+0	0.00000000E+0	1.37659626E-5	9.93712663E-6	3.63273753E-5	2.95100873E-5	8.95405518E-5	4.78826480E-4
2.43302000E+5	1.02000088E+2	0.00000000E+0	0.00000000E+0	1.39158951E-5	9.86169098E-6	3.60204948E-5	2.94279968E-5	8.92260777E-5	4.77144801E-4
2.53167000E+5	9.80010492E+1	0.00000000E+0	0.00000000E+0	1.39054047E-5	9.91140424E-6	3.60914452E-5	2.96409732E-5	8.95492273E-5	4.78872873E-4
2.57009000E+5	9.89984402E+1	0.00000000E+0	0.00000000E+0	1.38789462E-5	9.92536365E-6	3.62173511E-5	2.95410013E-5	8.95626622E-5	4.78944718E-4
2.60206000E+5	1.00000181E+2	0.00000000E+0	0.00000000E+0	1.37851076E-5	9.89982604E-6	3.61533029E-5	2.93530797E-5	8.91913163E-5	4.76958911E-4
2.63323000E+5	1.00999681E+2	0.00000000E+0	0.00000000E+0	1.38801353E-5	9.91022705E-6	3.62278743E-5	2.94243669E-5	8.94426035E-5	4.78302693E-4
2.66456000E+5	1.02000088E+2	0.00000000E+0	0.00000000E+0	1.38061480E-5	9.92002605E-6	3.62747295E-5	2.94508761E-5	8.94517797E-5	4.78351763E-4
2.69569000E+5	1.03000229E+2	0.00000000E+0	0.00000000E+0	1.38148712E-5	9.85613583E-6	3.61026211E-5	2.93860828E-5	8.91597109E-5	4.76789898E-4
2.72688000E+5	1.03999482E+2	0.00000000E+0	0.00000000E+0	1.36374251E-5	9.95056152E-6	3.61231638E-5	2.91456764E-5	8.88568269E-5	4.75170197E-4
2.75849000E+5	1.04999881E+2	0.00000000E+0	0.00000000E+0	1.38315992E-5	9.83583150E-6	3.63042994E-5	2.95151775E-5	8.94869077E-5	4.78539613E-4
2.78991000E+5	1.06000206E+2	0.00000000E+0	0.00000000E+0	1.38229714E-5	9.94284570E-6	3.63658770E-5	2.95430189E-5	8.96747130E-5	4.79543920E-4
2.82132000E+5	1.06999899E+2	0.00000000E+0	0.00000000E+0	1.37517260E-5	9.80021176E-6	3.62096830E-5	2.93009435E-5	8.90625643E-5	4.76270397E-4
2.85276000E+5	1.08000044E+2	0.00000000E+0	0.00000000E+0	1.38913618E-5	9.88259731E-6	3.61699326E-5	2.95056766E-5	8.94495683E-5	4.78339938E-4
2.88282000E+5	1.08999375E+2	0.00000000E+0	0.00000000E+0	1.38210313E-5	9.85818921E-6	3.61974581E-5	2.94012105E-5	8.92778890E-5	4.77421867E-4
2.91272000E+5	1.09999487E+2	0.00000000E+0	0.00000000E+0	1.37985186E-5	9.82858358E-6	3.60902174E-5	2.93371623E-5	8.90544819E-5	4.76227176E-4
2.94275000E+5	1.11000394E+2	0.00000000E+0	0.00000000E+0	1.38960050E-5	9.79894218E-6	3.61930920E-5	2.93190246E-5	8.92070638E-5	4.77043122E-4
2.97278000E+5	1.11999659E+2	0.00000000E+0	0.00000000E+0	1.39006244E-5	9.92545008E-6	3.63531394E-5	2.94617628E-5	8.96409767E-5	4.79363512E-4
3.00275000E+5	1.12999697E+2	0.00000000E+0	0.00000000E+0	1.38378756E-5	9.80029819E-6	3.61806972E-5	2.94171845E-5	8.92360555E-5	4.77198158E-4
3.03276000E+5	1.14000628E+2	0.00000000E+0	0.00000000E+0	1.38760553E-5	9.91358875E-6	3.62983151E-5	2.94196879E-5	8.95076471E-5	4.78650519E-4
3.06279000E+5	1.14999363E+2	0.00000000E+0	0.00000000E+0	1.38907270E-5	9.77359829E-6	3.60828502E-5	2.93905234E-5	8.91376989E-5	4.76672187E-4
3.09370000E+5	1.16000636E+2	0.00000000E+0	0.00000000E+0	1.38120310E-5	9.95588421E-6	3.61750318E-5	2.94389462E-5	8.93818932E-5	4.77978039E-4
3.12392000E+5	1.16999802E+2	0.00000000E+0	0.00000000E+0	1.40018897E-5	9.94385003E-6	3.63938345E-5	2.95629626E-5	8.99025369E-5	4.80762229E-4
3.15410000E+5	1.17999043E+2	0.00000000E+0	0.00000000E+0	1.36933134E-5	9.83787296E-6	3.63492979E-5	2.93802088E-5	8.92606931E-5	4.77329910E-4
3.18405000E+5	1.18999870E+2	0.00000000E+0	0.00000000E+0	1.37570159E-5	9.92462455E-6	3.61261411E-5	2.93640172E-5	8.91717987E-5	4.76854539E-4
3.21405000E+5	1.20000224E+2	0.00000000E+0	0.00000000E+0	1.38932930E-5	9.83991144E-6	3.61715747E-5	2.94419145E-5	8.93466937E-5	4.77789806E-4
2.14748365E+9	1.21000000E+2	0.00000000E+0	0.00000000E+0	1.38469117E-5	9.86785708E-6	3.61934169E-5	2.92803918E-5	8.91885774E-5	4.76944264E-4
