G:\BEAR_storage\User_Experiments\20220317_arneodo\Bpm\file(1)_bpm_0017.txt
Ring Energy (GeV): 2
Lifetime (hours): 14.2567
Scan beginning: 3/17/2022	5:04:03 PM
Ring current (mA): 308.47
Source position: x (mm): 0.002 x' (mrad): 0 y (mm): 0.007 y' (mrad): 0.001
Scan end: 3/17/2022	5:08:12 PM
Ring current (mA): 309.42
Source position: x (mm): 0.002 x' (mrad): 0.001 y (mm): 0.007 y' (mrad): 0.001

SCAN TYPE: TIME

FILE INFO: FILE INFO:

SCAN PARAMETERS
waiting time (ms): 1000
Number of scans: 1
Current scan number: 1
DARK OFF 
PREDARK OFF 

SCAN PARAMETERS
Number of points:  100

BEAR MONOCHROMATOR CONFIGURATION: 
Current Grating Position:     160137.70
Current Mirror Position: 298443.7
Current Grating: G1200
P2 phiz position:  0.0000
Mono axis position: 25.0000
Current Photon Energy (eV): 1500.003
Current Deviation Angle: 175.800
Vertical Exit Slits (um): 100.000
Exit slit y axis position: 1.3625
Horizontal Exit Slits (um):  889.156
Exit slit z axis position: 1.9229
Mitutoyo position (mm): 

Dose on sample (mJ/cm^2): NaN

ENERGY CALIBRATION:
offset grating G1200: yes
Delta 0 order G1200:  -800.0
offset grating G1800: not
Delta 0 order G1800:  0.0
offset grating GNIM: not
Delta 0 order GNIM:  0.0
ZERO ORDER POSITIONS:
Grating G1200: Mirror position:  4938.0
Grating position: -105355.0
Grating G1800: 
Mirror position:  4938.0
Grating position: -106345.0
Grating GNIM: 
Mirror position:  10000.0
Grating position: 227300.0

Initial filter: Ag filter 0.6 um

EXPERIMENTAL CHAMBER CONFIGURATION: 
PsiC (deg):   -0.000186
Phi Analyzer (degrees): -0.004735
Theta Manipulator (degrees): -44.000040
Theta Analyzer (degrees): -0.001619
PhiM (degrees): -0.000000
XM (mm): -7.999038
YM (mm): 23.979800
ZM (mm): (Warning: for kinetic energy scans, 
this parameter is given in the scan settings) 
-6.001375
TiltM (°): 0.000275

COIL VALUES
Ix (amps):2.820
Iy (amps): 6.789
Iz (amps): 37.337

POLARIZATION SELECTOR CONFIGURATION:
Psi1 (rad): -0.001665535
Psi2 (rad): 0.001417093
Z min position (mm): 46.599650
DZ position (mm): 18.599100
Zmin 0 (mm): 66.500000
DZ0 (mm): 53.000000

BEAM SELECTOR CONFIGURATION:
Zmin position (mm): NaN
DZ position (mm): NaN
Y+ position (mm): NaN
Y- position (mm): NaN

CHANNEL ELECTRON MULTIPLIER CONFIGURATION:
CEM configured: OFF
Bias CEM: 0.000000

FLUORESCENCE DETECTOR CONFIGURATION:
Not configured

LUMINESCENCE MONOCHROMATOR CONFIGURATION:
Optical fiber position (mm): 0.000000
Optical fiber Switch inside: OFF
Optical fiber Switch outside: ON
Monochromator wavelength (A): 0.000000
Limit Switches: ON

I0 MONITOR PARAMETERS:
I0 detector position(mm): -1.924999E+2
Lower switch: OFF
Upper switch: OFF
Valve status:open

PRESSURE PARAMETERS:
Monitor chamber pressure (mbar): 1.465e-09
Experimental chamber pressure -ION GAUGE-(mbar): 0.000000E+0

XMCD PARAMETERS:
Xmcd OFF
Xmcd Direction -
Xmcd current (A): 0.000000

Gated scan off

Instrument 1: AMMETER KEITHLEY 6517A B
Measure type: Current
range type: set range value
range value (ampere):  20 nA
Integration time:  set NPLC value
NPLC value: 10.000
Digital filter count: 2
SAMPLE BIAS (V): -30.000
Vsource: ON
Output Voltage value: 30.000
Vsource range: 1000 V

Instrument 2: AMMETER KEITHLEY 6517A A
Measure type: Current
range type: set range value
range value (ampere):  20 nA
Integration time:  set NPLC value
NPLC value: 10.000
Digital filter count: 2
Vsource: OFF
Output Voltage value: -0.000
Vsource range: 100 V
Trigger source: bus

Instrument 3: None


________________________________________________________________________________

RelativeTime (msec)	Number	Absolute time (msec)	Relative time (msec)	a) I_1 (Amps)	b) I_2 (Amps)	d) I_3 (Amps)	c) I_4 (Amps)	I_BPM_sum (Amps)	Delta Z(mm)	
________________________________________________________________________________

2.69100000E+3	0.00000000E+0	1.07318320E+8	2.69100000E+3	1.39343219E-5	1.00404811E-5	3.61778481E-5	2.90092324E-5	8.91618835E-5	4.76801516E-4
6.14200000E+3	1.00000000E+0	1.07321771E+8	6.14200000E+3	1.38685720E-5	1.00379270E-5	3.59388663E-5	2.93052947E-5	8.91506599E-5	4.76741497E-4
8.95200000E+3	2.00000000E+0	1.07324581E+8	8.95200000E+3	1.39070557E-5	9.96915519E-6	3.62170501E-5	2.93510621E-5	8.94443231E-5	4.78311888E-4
1.17150000E+4	3.00000000E+0	1.07327344E+8	1.17150000E+4	1.38334261E-5	9.97400403E-6	3.59175516E-5	2.92626028E-5	8.89875846E-5	4.75869436E-4
1.44750000E+4	4.00000000E+0	1.07330104E+8	1.44750000E+4	1.39541643E-5	9.99278843E-6	3.59854443E-5	2.95891380E-5	8.95215350E-5	4.78724786E-4
1.72350000E+4	5.00000000E+0	1.07332864E+8	1.72350000E+4	1.39958249E-5	9.98786509E-6	3.61435754E-5	2.93644284E-5	8.94916939E-5	4.78565208E-4
2.00000000E+4	6.00000000E+0	1.07335629E+8	2.00000000E+4	1.40911149E-5	1.00219321E-5	3.61926033E-5	2.94214820E-5	8.97271323E-5	4.79824237E-4
2.27590000E+4	7.00000000E+0	1.07338388E+8	2.27590000E+4	1.39877276E-5	9.94416296E-6	3.59901710E-5	2.93436413E-5	8.92657029E-5	4.77356700E-4
2.55520000E+4	8.00000000E+0	1.07341181E+8	2.55520000E+4	1.39526533E-5	9.95677530E-6	3.60950841E-5	2.92997514E-5	8.93042641E-5	4.77562910E-4
2.83520000E+4	9.00000000E+0	1.07343981E+8	2.83520000E+4	1.40343474E-5	1.00429457E-5	3.57872141E-5	2.93343072E-5	8.91988145E-5	4.76999008E-4
3.11160000E+4	1.00000000E+1	1.07346745E+8	3.11160000E+4	1.39325010E-5	9.98993635E-6	3.63155468E-5	2.95664197E-5	8.98044038E-5	4.80237453E-4
3.39090000E+4	1.10000000E+1	1.07349538E+8	3.39090000E+4	1.39549600E-5	1.00277108E-5	3.61902518E-5	2.92477911E-5	8.94207137E-5	4.78185635E-4
3.66730000E+4	1.20000000E+1	1.07352302E+8	3.66730000E+4	1.38900475E-5	1.00187224E-5	3.58990861E-5	2.94031148E-5	8.92109709E-5	4.77064016E-4
3.94300000E+4	1.30000000E+1	1.07355059E+8	3.94300000E+4	1.39383809E-5	1.01782423E-5	3.62429602E-5	2.95060491E-5	8.98656326E-5	4.80564880E-4
4.22310000E+4	1.40000000E+1	1.07357860E+8	4.22310000E+4	1.39716701E-5	1.00886476E-5	3.60251112E-5	2.94335192E-5	8.95189481E-5	4.78710953E-4
4.49960000E+4	1.50000000E+1	1.07360625E+8	4.49960000E+4	1.39977293E-5	1.00807798E-5	3.59937919E-5	2.95338517E-5	8.96061527E-5	4.79177287E-4
4.77580000E+4	1.60000000E+1	1.07363387E+8	4.77580000E+4	1.38894396E-5	1.00414527E-5	3.61987515E-5	2.92725270E-5	8.94021707E-5	4.78086474E-4
5.05250000E+4	1.70000000E+1	1.07366154E+8	5.05250000E+4	1.39262246E-5	9.91898893E-6	3.58923269E-5	2.93133204E-5	8.90508609E-5	4.76207812E-4
5.33020000E+4	1.80000000E+1	1.07368931E+8	5.33020000E+4	1.39547812E-5	9.94617760E-6	3.61088498E-5	2.95241898E-5	8.95339983E-5	4.78791435E-4
5.60640000E+4	1.90000000E+1	1.07371693E+8	5.60640000E+4	1.38820873E-5	1.00049895E-5	3.61829443E-5	2.93789958E-5	8.94490170E-5	4.78336989E-4
5.88290000E+4	2.00000000E+1	1.07374458E+8	5.88290000E+4	1.40172349E-5	1.00713772E-5	3.63842262E-5	2.91809534E-5	8.96537917E-5	4.79432041E-4
6.16040000E+4	2.10000000E+1	1.07377233E+8	6.16040000E+4	1.38709353E-5	1.00594086E-5	3.61140503E-5	2.95322781E-5	8.95766723E-5	4.79019638E-4
6.43690000E+4	2.20000000E+1	1.07379998E+8	6.43690000E+4	1.39552014E-5	1.00569081E-5	3.62294717E-5	2.95040732E-5	8.97456544E-5	4.79923286E-4
6.71310000E+4	2.30000000E+1	1.07382760E+8	6.71310000E+4	1.39281975E-5	1.00015682E-5	3.59774364E-5	2.93754672E-5	8.92826693E-5	4.77447430E-4
6.99000000E+4	2.40000000E+1	1.07385529E+8	6.99000000E+4	1.40274512E-5	1.00065869E-5	3.62320675E-5	2.92179142E-5	8.94840198E-5	4.78524170E-4
7.26650000E+4	2.50000000E+1	1.07388294E+8	7.26650000E+4	1.39045136E-5	1.01007831E-5	3.61873998E-5	2.96298331E-5	8.98225295E-5	4.80334383E-4
7.54330000E+4	2.60000000E+1	1.07391062E+8	7.54330000E+4	1.39576333E-5	9.90835844E-6	3.62544788E-5	2.94553553E-5	8.95758259E-5	4.79015112E-4
7.81920000E+4	2.70000000E+1	1.07393821E+8	7.81920000E+4	1.40486138E-5	9.97353613E-6	3.62754567E-5	2.93795114E-5	8.96771180E-5	4.79556781E-4
8.09890000E+4	2.80000000E+1	1.07396618E+8	8.09890000E+4	1.41459094E-5	1.00133640E-5	3.59737350E-5	2.93563163E-5	8.94893246E-5	4.78552538E-4
8.37860000E+4	2.90000000E+1	1.07399415E+8	8.37860000E+4	1.40280025E-5	1.00131106E-5	3.60359980E-5	2.94016396E-5	8.94787508E-5	4.78495993E-4
8.65680000E+4	3.00000000E+1	1.07402197E+8	8.65680000E+4	1.39268325E-5	1.00249302E-5	3.62520202E-5	2.93530708E-5	8.95568537E-5	4.78913656E-4
8.93330000E+4	3.10000000E+1	1.07404962E+8	8.93330000E+4	1.38360129E-5	9.98318016E-6	3.61374779E-5	2.94398343E-5	8.93965053E-5	4.78056178E-4
9.20980000E+4	3.20000000E+1	1.07407727E+8	9.20980000E+4	1.39085011E-5	1.00083512E-5	3.60527469E-5	2.94261252E-5	8.93957245E-5	4.78052002E-4
9.48720000E+4	3.30000000E+1	1.07410501E+8	9.48720000E+4	1.39325814E-5	9.98451531E-6	3.63325699E-5	2.93562447E-5	8.96059113E-5	4.79175996E-4
9.76410000E+4	3.40000000E+1	1.07413270E+8	9.76410000E+4	1.39178710E-5	1.00336355E-5	3.61300243E-5	2.93845450E-5	8.94660758E-5	4.78428213E-4
1.00409000E+5	3.50000000E+1	1.07416038E+8	1.00409000E+5	1.40521960E-5	1.00456935E-5	3.61989988E-5	2.92756503E-5	8.95725387E-5	4.78997533E-4
1.03174000E+5	3.60000000E+1	1.07418803E+8	1.03174000E+5	1.39672445E-5	9.97227847E-6	3.61732913E-5	2.94925606E-5	8.96053749E-5	4.79173128E-4
1.05972000E+5	3.70000000E+1	1.07421601E+8	1.05972000E+5	1.38962136E-5	1.00400132E-5	3.60899849E-5	2.92272811E-5	8.92534929E-5	4.77291406E-4
1.08772000E+5	3.80000000E+1	1.07424401E+8	1.08772000E+5	1.40316742E-5	1.00286824E-5	3.61391885E-5	2.96278780E-5	8.98274231E-5	4.80360551E-4
1.11541000E+5	3.90000000E+1	1.07427170E+8	1.11541000E+5	1.39963763E-5	9.90792035E-6	3.60529108E-5	2.92978441E-5	8.92550515E-5	4.77299741E-4
1.14304000E+5	4.00000000E+1	1.07429933E+8	1.14304000E+5	1.39382766E-5	1.00209129E-5	3.63056614E-5	2.95104628E-5	8.97753137E-5	4.80081891E-4
1.17107000E+5	4.10000000E+1	1.07432736E+8	1.17107000E+5	1.39991211E-5	9.93484675E-6	3.62161501E-5	2.93299293E-5	8.94800472E-5	4.78502926E-4
1.19899000E+5	4.20000000E+1	1.07435528E+8	1.19899000E+5	1.39133619E-5	9.95245099E-6	3.60847665E-5	2.93433880E-5	8.92939674E-5	4.77507847E-4
1.22664000E+5	4.30000000E+1	1.07438293E+8	1.22664000E+5	1.40209096E-5	9.97913599E-6	3.62338854E-5	2.93023830E-5	8.95363140E-5	4.78803818E-4
1.25427000E+5	4.40000000E+1	1.07441056E+8	1.25427000E+5	1.39834659E-5	9.99671638E-6	3.60270126E-5	2.96250498E-5	8.96322447E-5	4.79316816E-4
1.28195000E+5	4.50000000E+1	1.07443824E+8	1.28195000E+5	1.39974968E-5	1.00767118E-5	3.62948044E-5	2.94947361E-5	8.98637491E-5	4.80554808E-4
1.30988000E+5	4.60000000E+1	1.07446617E+8	1.30988000E+5	1.38369905E-5	1.00545240E-5	3.61405863E-5	2.91714077E-5	8.92035084E-5	4.77024109E-4
1.33749000E+5	4.70000000E+1	1.07449378E+8	1.33749000E+5	1.38316350E-5	9.96638357E-6	3.59800531E-5	2.92908852E-5	8.90689569E-5	4.76304582E-4
1.36511000E+5	4.80000000E+1	1.07452140E+8	1.36511000E+5	1.40427785E-5	1.00395393E-5	3.62523390E-5	2.93140774E-5	8.96487343E-5	4.79404996E-4
1.39269000E+5	4.90000000E+1	1.07454898E+8	1.39269000E+5	1.40117692E-5	1.00050610E-5	3.60846890E-5	2.94443404E-5	8.95458596E-5	4.78854864E-4
1.42032000E+5	5.00000000E+1	1.07457661E+8	1.42032000E+5	1.40325027E-5	1.00389224E-5	3.62859590E-5	2.94968938E-5	8.98542780E-5	4.80504160E-4
1.45586000E+5	5.10000000E+1	1.07461215E+8	1.45586000E+5	1.39931338E-5	1.00159895E-5	3.61064507E-5	2.94169789E-5	8.95325529E-5	4.78783705E-4
1.48348000E+5	5.20000000E+1	1.07463977E+8	1.48348000E+5	1.39091777E-5	9.94474112E-6	3.61631139E-5	2.92748337E-5	8.92918663E-5	4.77496611E-4
1.51113000E+5	5.30000000E+1	1.07466742E+8	1.51113000E+5	1.39389859E-5	1.00699437E-5	3.60899104E-5	2.94791465E-5	8.95779865E-5	4.79026666E-4
1.53906000E+5	5.40000000E+1	1.07469535E+8	1.53906000E+5	1.39121936E-5	1.00386900E-5	3.59931661E-5	2.94031238E-5	8.93471735E-5	4.77792372E-4
1.56678000E+5	5.50000000E+1	1.07472307E+8	1.56678000E+5	1.39257984E-5	9.99375105E-6	3.59209074E-5	2.93229555E-5	8.91634124E-5	4.76809692E-4
1.59443000E+5	5.60000000E+1	1.07475072E+8	1.59443000E+5	1.38239937E-5	1.00307357E-5	3.61558391E-5	2.91004454E-5	8.91110139E-5	4.76529486E-4
1.62210000E+5	5.70000000E+1	1.07477839E+8	1.62210000E+5	1.39306890E-5	9.93261754E-6	3.57362790E-5	2.93184375E-5	8.89180230E-5	4.75497449E-4
1.64979000E+5	5.80000000E+1	1.07480608E+8	1.64979000E+5	1.39215963E-5	1.00144875E-5	3.63587929E-5	2.93501442E-5	8.96450209E-5	4.79385139E-4
1.67753000E+5	5.90000000E+1	1.07483382E+8	1.67753000E+5	1.39592605E-5	1.00163412E-5	3.60829218E-5	2.95820152E-5	8.96405386E-5	4.79361169E-4
1.70564000E+5	6.00000000E+1	1.07486193E+8	1.70564000E+5	1.38849543E-5	9.95995521E-6	3.61469997E-5	2.95378959E-5	8.95298051E-5	4.78769011E-4
1.73333000E+5	6.10000000E+1	1.07488962E+8	1.73333000E+5	1.39620351E-5	1.00064021E-5	3.61372454E-5	2.94244950E-5	8.95301777E-5	4.78771004E-4
1.76096000E+5	6.20000000E+1	1.07491725E+8	1.76096000E+5	1.38002114E-5	9.93483781E-6	3.61358805E-5	2.91775530E-5	8.90484827E-5	4.76195094E-4
1.78874000E+5	6.30000000E+1	1.07494503E+8	1.78874000E+5	1.39507102E-5	1.00280386E-5	3.61329718E-5	2.94595128E-5	8.95712333E-5	4.78990553E-4
1.81650000E+5	6.40000000E+1	1.07497279E+8	1.81650000E+5	1.38807105E-5	9.96436297E-6	3.61295922E-5	2.92848384E-5	8.92595040E-5	4.77323551E-4
1.84457000E+5	6.50000000E+1	1.07500086E+8	1.84457000E+5	1.38983624E-5	9.98327255E-6	3.63607837E-5	2.95029109E-5	8.97453296E-5	4.79921549E-4
1.87225000E+5	6.60000000E+1	1.07502854E+8	1.87225000E+5	1.38522671E-5	9.98345136E-6	3.62503006E-5	2.92663132E-5	8.93523323E-5	4.77819959E-4
1.90026000E+5	6.70000000E+1	1.07505655E+8	1.90026000E+5	1.39714049E-5	9.94884192E-6	3.61649705E-5	2.92720681E-5	8.93572854E-5	4.77846446E-4
1.92797000E+5	6.80000000E+1	1.07508426E+8	1.92797000E+5	1.39408903E-5	1.00664240E-5	3.61316545E-5	2.93089604E-5	8.94479292E-5	4.78331172E-4
1.95568000E+5	6.90000000E+1	1.07511197E+8	1.95568000E+5	1.37923406E-5	9.99195099E-6	3.59742237E-5	2.95051848E-5	8.92637002E-5	4.77345990E-4
1.98350000E+5	7.00000000E+1	1.07513979E+8	1.98350000E+5	1.39922546E-5	9.91285561E-6	3.57719226E-5	2.91986113E-5	8.88756441E-5	4.75270824E-4
2.01123000E+5	7.10000000E+1	1.07516752E+8	2.01123000E+5	1.40214847E-5	1.00091916E-5	3.62090094E-5	2.95631265E-5	8.98028123E-5	4.80228943E-4
2.03886000E+5	7.20000000E+1	1.07519515E+8	2.03886000E+5	1.39450269E-5	9.93773162E-6	3.61432148E-5	2.93877428E-5	8.94137161E-5	4.78148215E-4
2.06649000E+5	7.30000000E+1	1.07522278E+8	2.06649000E+5	1.39805959E-5	9.98620510E-6	3.59863563E-5	2.94482654E-5	8.94014227E-5	4.78082474E-4
2.09424000E+5	7.40000000E+1	1.07525053E+8	2.09424000E+5	1.39266627E-5	9.91168140E-6	3.60438479E-5	2.92677110E-5	8.91499030E-5	4.76737449E-4
2.12263000E+5	7.50000000E+1	1.07527892E+8	2.12263000E+5	1.39854239E-5	9.95374143E-6	3.60177143E-5	2.93506419E-5	8.93075215E-5	4.77580329E-4
2.15072000E+5	7.60000000E+1	1.07530701E+8	2.15072000E+5	1.39230983E-5	1.00094897E-5	3.59728737E-5	2.93313181E-5	8.92367797E-5	4.77202031E-4
2.17857000E+5	7.70000000E+1	1.07533486E+8	2.17857000E+5	1.38251232E-5	9.98993635E-6	3.60924496E-5	2.92668586E-5	8.91743677E-5	4.76868276E-4
2.20629000E+5	7.80000000E+1	1.07536258E+8	2.20629000E+5	1.39457511E-5	1.00052249E-5	3.62324490E-5	2.93706124E-5	8.95540374E-5	4.78898596E-4
2.23397000E+5	7.90000000E+1	1.07539026E+8	2.23397000E+5	1.38145761E-5	9.97764289E-6	3.59759880E-5	2.90539448E-5	8.88221519E-5	4.74984769E-4
2.26176000E+5	8.00000000E+1	1.07541805E+8	2.26176000E+5	1.40338706E-5	9.91562425E-6	3.61806168E-5	2.93914919E-5	8.95216035E-5	4.78725153E-4
2.28950000E+5	8.10000000E+1	1.07544579E+8	2.28950000E+5	1.40016036E-5	9.97586369E-6	3.59518988E-5	2.94934010E-5	8.94227671E-5	4.78196615E-4
2.31718000E+5	8.20000000E+1	1.07547347E+8	2.31718000E+5	1.39247672E-5	9.92379903E-6	3.59273089E-5	2.94624841E-5	8.92383592E-5	4.77210477E-4
2.34489000E+5	8.30000000E+1	1.07550118E+8	2.34489000E+5	1.38265209E-5	1.00372654E-5	3.60331429E-5	2.92443370E-5	8.91412662E-5	4.76691263E-4
2.37263000E+5	8.40000000E+1	1.07552892E+8	2.37263000E+5	1.39560209E-5	9.97054100E-6	3.62452252E-5	2.93869888E-5	8.95587760E-5	4.78923936E-4
2.40067000E+5	8.50000000E+1	1.07555696E+8	2.40067000E+5	1.39298277E-5	1.00309533E-5	3.60306664E-5	2.94346099E-5	8.94260573E-5	4.78214210E-4
2.42846000E+5	8.60000000E+1	1.07558475E+8	2.42846000E+5	1.39237182E-5	1.00884360E-5	3.64197983E-5	2.94222122E-5	8.98541647E-5	4.80503555E-4
2.45616000E+5	8.70000000E+1	1.07561245E+8	2.45616000E+5	1.39771597E-5	1.00374532E-5	3.62688614E-5	2.94465339E-5	8.97300082E-5	4.79839616E-4
2.14748365E+9	8.80000000E+1	     NaN	     NaN	1.40418040E-5	1.00240243E-5	3.61482693E-5	2.92603259E-5	8.94744235E-5	4.78472853E-4
