G:\BEAR_storage\User_Experiments\20220317_arneodo\Bpm\file(1)_bpm_0013.txt
Ring Energy (GeV): 2
Lifetime (hours): 0
Scan beginning: 3/17/2022	2:44:44 PM
Ring current (mA): 309.43
Source position: x (mm): 0.003 x' (mrad): 0 y (mm): 0.006 y' (mrad): 0.001
Scan end: 3/17/2022	3:03:05 PM
Ring current (mA): 309.19
Source position: x (mm): 0.003 x' (mrad): -0 y (mm): 0.006 y' (mrad): 0.001

SCAN TYPE: PHOTON ENERGY VS VAR_1 VS VAR_2

FILE INFO: FILE INFO:

SCAN PARAMETERS
waiting time (ms): 1000
Number of scans: 1
Current scan number: 1
DARK OFF 
PREDARK OFF 

SCAN PARAMETERS
Regions configuration: 
number of regions: 7
Mirror grating scan: on
Timed acquisition: off
Region 1:
Initial energy (eV): 3.000000
Final energy (eV): 4.500000
Delta energy (eV): 0.500000
Deviation angle choice: Degrees: 
Deviation angle (°): NaN
B270 window
GNIM channel
range keithley B 200 pA
range keithley C 200 pA
range keithley A 200 pA
Var_1: ThetaA0.000000
Var_2: PhiA:  0.000000
Bias CEM (V): 0.000000
Bias Keithley B (V): -30.000000
Name region: 
Region 2:
Initial energy (eV): 4.000000
Final energy (eV): 8.000000
Delta energy (eV): 0.500000
Deviation angle choice: Degrees: 
Deviation angle (°): NaN
SiO2 window
GNIM channel
range keithley B 200 pA
range keithley C 200 pA
range keithley A 200 pA
Var_1: ThetaA0.000000
Var_2: PhiA:  0.000000
Bias CEM (V): 0.000000
Bias Keithley B (V): -30.000000
Name region: 
Region 3:
Initial energy (eV): 7.000000
Final energy (eV): 12.000000
Delta energy (eV): 0.500000
Deviation angle choice: Degrees: 
Deviation angle (°): NaN
filter LiF window
GNIM channel
range keithley B 200 pA
range keithley C 200 pA
range keithley A 200 pA
Var_1: ThetaA0.000000
Var_2: PhiA:  0.000000
Bias CEM (V): 0.000000
Bias Keithley B (V): -30.000000
Name region: 
Region 4:
Initial energy (eV): 11.000000
Final energy (eV): 18.000000
Delta energy (eV): 0.500000
Deviation angle choice: Degrees: 
Deviation angle (°): NaN
In filter
GNIM channel
range keithley B 200 pA
range keithley C 200 pA
range keithley A 200 pA
Var_1: ThetaA0.000000
Var_2: PhiA:  0.000000
Bias CEM (V): 0.000000
Bias Keithley B (V): -30.000000
Name region: 
Region 5:
Initial energy (eV): 15.000000
Final energy (eV): 25.000000
Delta energy (eV): 0.500000
Deviation angle choice: Degrees: 
Deviation angle (°): NaN
Sn filter
GNIM channel
range keithley B 200 pA
range keithley C 200 pA
range keithley A 200 pA
Var_1: ThetaA0.000000
Var_2: PhiA:  0.000000
Bias CEM (V): 0.000000
Bias Keithley B (V): -30.000000
Name region: 
Region 6:
Initial energy (eV): 23.000000
Final energy (eV): 45.000000
Delta energy (eV): 0.500000
Deviation angle choice: Degrees: 
Deviation angle (°): NaN
Full Beam
GNIM channel
range keithley B 20 nA
range keithley C 200 pA
range keithley A 20 nA
Var_1: ThetaA0.000000
Var_2: PhiA:  0.000000
Bias CEM (V): 0.000000
Bias Keithley B (V): -30.000000
Name region: 
Region 7:
Initial energy (eV): 23.000000
Final energy (eV): 45.000000
Delta energy (eV): 0.500000
Deviation angle choice: Degrees: 
Deviation angle (°): NaN
Al filter
GNIM channel
range keithley B 20 nA
range keithley C 200 pA
range keithley A 20 nA
Var_1: ThetaA0.000000
Var_2: PhiA:  0.000000
Bias CEM (V): 0.000000
Bias Keithley B (V): -30.000000
Name region: 

BEAR MONOCHROMATOR CONFIGURATION: 
Current Grating Position:     200056.70
Current Mirror Position: 9999.9
Current Grating: GNIM
P2 phiz position:  -0.0195
Mono axis position: 73.5000
Current Photon Energy (eV): 45.000
Current Deviation Angle: 29.905
Vertical Exit Slits (um): 100.000
Exit slit y axis position: 1.3625
Horizontal Exit Slits (um):  889.156
Exit slit z axis position: 1.9229
Mitutoyo position (mm): 

Dose on sample (mJ/cm^2): NaN

ENERGY CALIBRATION:
offset grating G1200: yes
Delta 0 order G1200:  -1200.0
offset grating G1800: not
Delta 0 order G1800:  0.0
offset grating GNIM: not
Delta 0 order GNIM:  0.0
ZERO ORDER POSITIONS:
Grating G1200: Mirror position:  4938.0
Grating position: -105355.0
Grating G1800: 
Mirror position:  4938.0
Grating position: -106345.0
Grating GNIM: 
Mirror position:  10000.0
Grating position: 227300.0

Initial filter: Al filter

EXPERIMENTAL CHAMBER CONFIGURATION: 
PsiC (deg):   -0.000186
Phi Analyzer (degrees): -0.005682
Theta Manipulator (degrees): -44.000040
Theta Analyzer (degrees): -0.001619
PhiM (degrees): -0.001026
XM (mm): 0.000975
YM (mm): 15.964025
ZM (mm): (Warning: for kinetic energy scans, 
this parameter is given in the scan settings) 
-6.001413
TiltM (°): 0.000275

COIL VALUES
Ix (amps):2.820
Iy (amps): 6.789
Iz (amps): 37.337

POLARIZATION SELECTOR CONFIGURATION:
Psi1 (rad): -0.001665535
Psi2 (rad): 0.001417093
Z min position (mm): 46.599650
DZ position (mm): 18.599100
Zmin 0 (mm): 66.500000
DZ0 (mm): 53.000000

BEAM SELECTOR CONFIGURATION:
Zmin position (mm): NaN
DZ position (mm): NaN
Y+ position (mm): NaN
Y- position (mm): NaN

CHANNEL ELECTRON MULTIPLIER CONFIGURATION:
CEM configured: OFF
Bias CEM: 0.000000

FLUORESCENCE DETECTOR CONFIGURATION:
Not configured

LUMINESCENCE MONOCHROMATOR CONFIGURATION:
Optical fiber position (mm): 0.000000
Optical fiber Switch inside: OFF
Optical fiber Switch outside: ON
Monochromator wavelength (A): 0.000000
Limit Switches: ON

I0 MONITOR PARAMETERS:
I0 detector position(mm): -1.924999E+2
Lower switch: OFF
Upper switch: OFF
Valve status:open

PRESSURE PARAMETERS:
Monitor chamber pressure (mbar): 1.096e-09
Experimental chamber pressure -ION GAUGE-(mbar): 0.000000E+0

XMCD PARAMETERS:
Xmcd OFF
Xmcd Direction -
Xmcd current (A): 0.000000

Gated scan off

Instrument 1: AMMETER KEITHLEY 6517A B
Measure type: Current
range type: set range value
range value (ampere):  20 nA
Integration time:  set NPLC value
NPLC value: 10.000
Digital filter count: 2
SAMPLE BIAS (V): 0.000
Vsource: ON
Output Voltage value: -0.000
Vsource range: 1000 V

Keithley B Bias (V) changed to: -30.000000

Range Keithley B changed to 2 mA

Range Keithley B changed to 20 pA

Range Keithley B changed to 20 nA

Range Keithley B changed to 200 pA

Range Keithley B changed to 20 nA

Range Keithley B changed to 200 pA

Range Keithley B changed to 20 nA

Range Keithley B changed to 200 pA

Range Keithley B changed to 20 nA

Range Keithley B changed to 200 pA

Range Keithley B changed to 20 nA

Instrument 2: AMMETER KEITHLEY 6517A A
Measure type: Current
range type: set range value
range value (ampere):  20 nA
Integration time:  set NPLC value
NPLC value: 10.000
Digital filter count: 2
Vsource: OFF
Output Voltage value: -0.000
Vsource range: 100 V
Trigger source: bus

Range Keithley A changed to 200 nA

Range Keithley A changed to 200 pA

Range Keithley A changed to 20 nA

Range Keithley A changed to 200 pA

Range Keithley A changed to 20 nA

Range Keithley A changed to 200 nA

Range Keithley A changed to 200 pA

Range Keithley A changed to 20 nA

Range Keithley A changed to 200 pA

Range Keithley A changed to 20 nA

Range Keithley A changed to 200 pA

Range Keithley A changed to 20 nA

Instrument 3: None


________________________________________________________________________________

RelativeTime (msec)	Photon Energy	Var_1	Var_2	a) I_1 (Amps)	b) I_2 (Amps)	d) I_3 (Amps)	c) I_4 (Amps)	I_BPM_sum (Amps)	Delta Z(mm)	
________________________________________________________________________________

9.86900000E+3	2.99999719E+0	0.00000000E+0	0.00000000E+0	1.41170638E-5	1.00400668E-5	3.60579027E-5	2.95856183E-5	8.98006516E-5	4.80217388E-4
3.74250000E+4	3.49999938E+0	0.00000000E+0	0.00000000E+0	1.40308188E-5	1.00730282E-5	3.60600872E-5	2.93760812E-5	8.95400154E-5	4.78823612E-4
5.86570000E+4	3.99998991E+0	0.00000000E+0	0.00000000E+0	1.39086591E-5	1.00162131E-5	3.61661000E-5	2.94135963E-5	8.95045685E-5	4.78634056E-4
7.67540000E+4	4.50000329E+0	0.00000000E+0	0.00000000E+0	1.39645683E-5	1.00219351E-5	3.57368363E-5	2.90746604E-5	8.87980001E-5	4.74855615E-4
1.04892000E+5	4.00000822E+0	0.00000000E+0	0.00000000E+0	1.38788538E-5	9.98967409E-6	3.59626247E-5	2.92924320E-5	8.91235845E-5	4.76596709E-4
1.24357000E+5	4.49999502E+0	0.00000000E+0	0.00000000E+0	1.39173822E-5	1.00762498E-5	3.59680785E-5	2.92118554E-5	8.91735660E-5	4.76863989E-4
1.40038000E+5	4.99998601E+0	0.00000000E+0	0.00000000E+0	1.40446858E-5	9.98989463E-6	3.57563300E-5	2.93345278E-5	8.91254382E-5	4.76606622E-4
1.54324000E+5	5.49999306E+0	0.00000000E+0	0.00000000E+0	1.40301900E-5	9.96088206E-6	3.59706564E-5	2.88937901E-5	8.88555186E-5	4.75163201E-4
1.67394000E+5	6.00000704E+0	0.00000000E+0	0.00000000E+0	1.39614897E-5	1.01000470E-5	3.60618366E-5	2.93134456E-5	8.94368189E-5	4.78271759E-4
1.79539000E+5	6.50000912E+0	0.00000000E+0	0.00000000E+0	1.39890240E-5	9.99231756E-6	3.57773585E-5	2.93378805E-5	8.90965806E-5	4.76452303E-4
1.90916000E+5	6.99999598E+0	0.00000000E+0	0.00000000E+0	1.39550613E-5	1.00212169E-5	3.60982878E-5	2.93649112E-5	8.94394773E-5	4.78285975E-4
2.01698000E+5	7.50001212E+0	0.00000000E+0	0.00000000E+0	1.39606433E-5	9.99033570E-6	3.58302964E-5	2.92494481E-5	8.90307235E-5	4.76100125E-4
2.11979000E+5	7.99995527E+0	0.00000000E+0	0.00000000E+0	1.39844226E-5	1.00629670E-5	3.61858113E-5	2.93339317E-5	8.95671325E-5	4.78968623E-4
2.33913000E+5	7.00001199E+0	0.00000000E+0	0.00000000E+0	1.39265494E-5	1.00133520E-5	3.60657675E-5	2.93366378E-5	8.93423068E-5	4.77766346E-4
2.46142000E+5	7.49998913E+0	0.00000000E+0	0.00000000E+0	1.39406668E-5	1.00331914E-5	3.61055715E-5	2.92448973E-5	8.93243270E-5	4.77670198E-4
2.56649000E+5	7.99995527E+0	0.00000000E+0	0.00000000E+0	1.39240669E-5	9.99998868E-6	3.62647547E-5	2.94992840E-5	8.96880942E-5	4.79615477E-4
2.66560000E+5	8.49997283E+0	0.00000000E+0	0.00000000E+0	1.40276657E-5	9.99080658E-6	3.61677958E-5	2.90972327E-5	8.92835008E-5	4.77451876E-4
2.76187000E+5	9.00001190E+0	0.00000000E+0	0.00000000E+0	1.39804052E-5	9.99292254E-6	3.58552260E-5	2.93917095E-5	8.92202633E-5	4.77113707E-4
2.85534000E+5	9.49999960E+0	0.00000000E+0	0.00000000E+0	1.38260977E-5	9.99677002E-6	3.60055013E-5	2.91711872E-5	8.89995562E-5	4.75933456E-4
2.94625000E+5	1.00000154E+1	0.00000000E+0	0.00000000E+0	1.39563905E-5	1.00534630E-5	3.58565641E-5	2.93693041E-5	8.92357217E-5	4.77196373E-4
3.03738000E+5	1.05000018E+1	0.00000000E+0	0.00000000E+0	1.40244173E-5	1.00477350E-5	3.57248706E-5	2.93126678E-5	8.91096907E-5	4.76522410E-4
3.12243000E+5	1.09999842E+1	0.00000000E+0	0.00000000E+0	1.38493584E-5	9.93573486E-6	3.59839959E-5	2.93208068E-5	8.90898960E-5	4.76416556E-4
3.20732000E+5	1.15000157E+1	0.00000000E+0	0.00000000E+0	1.40127437E-5	9.97884691E-6	3.59727604E-5	2.93678259E-5	8.93321770E-5	4.77712176E-4
3.29363000E+5	1.20000294E+1	0.00000000E+0	0.00000000E+0	1.39131861E-5	1.01201964E-5	3.59960569E-5	2.94804459E-5	8.95098853E-5	4.78662488E-4
3.46010000E+5	1.10000237E+1	0.00000000E+0	0.00000000E+0	1.39789956E-5	1.00550991E-5	3.60246046E-5	2.93182915E-5	8.93769907E-5	4.77951822E-4
3.55820000E+5	1.14998968E+1	0.00000000E+0	0.00000000E+0	1.40034543E-5	9.98615742E-6	3.58766777E-5	2.94211929E-5	8.92874824E-5	4.77473168E-4
3.64382000E+5	1.20000177E+1	0.00000000E+0	0.00000000E+0	1.40019493E-5	9.95707929E-6	3.61424310E-5	2.94435000E-5	8.95449596E-5	4.78850051E-4
3.71969000E+5	1.25000105E+1	0.00000000E+0	0.00000000E+0	1.38549136E-5	1.00497526E-5	3.58946783E-5	2.92653566E-5	8.90647011E-5	4.76281824E-4
3.79716000E+5	1.29999741E+1	0.00000000E+0	0.00000000E+0	1.39876293E-5	9.97375965E-6	3.58654870E-5	2.93502962E-5	8.91771721E-5	4.76883273E-4
3.87184000E+5	1.34999663E+1	0.00000000E+0	0.00000000E+0	1.38082163E-5	1.00195152E-5	3.60499514E-5	2.91655873E-5	8.90432702E-5	4.76167221E-4
3.94620000E+5	1.40000449E+1	0.00000000E+0	0.00000000E+0	1.39027880E-5	1.00264680E-5	3.57986046E-5	2.92617535E-5	8.89896141E-5	4.75880289E-4
4.02136000E+5	1.44999260E+1	0.00000000E+0	0.00000000E+0	1.38868676E-5	1.00157422E-5	3.57576472E-5	2.93414210E-5	8.90016781E-5	4.75944803E-4
4.09439000E+5	1.50000574E+1	0.00000000E+0	0.00000000E+0	1.39709460E-5	1.00468290E-5	3.61392094E-5	2.93950474E-5	8.95520317E-5	4.78887870E-4
4.16234000E+5	1.55000318E+1	0.00000000E+0	0.00000000E+0	1.38179438E-5	1.00118381E-5	3.58954592E-5	2.94674879E-5	8.91927289E-5	4.76966465E-4
4.22851000E+5	1.60000006E+1	0.00000000E+0	0.00000000E+0	1.39899300E-5	9.97608423E-6	3.58608110E-5	2.92820548E-5	8.91088801E-5	4.76518075E-4
4.29552000E+5	1.65000846E+1	0.00000000E+0	0.00000000E+0	1.40626507E-5	1.00667995E-5	3.58119054E-5	2.90237163E-5	8.89650719E-5	4.75749048E-4
4.36091000E+5	1.69998820E+1	0.00000000E+0	0.00000000E+0	1.40737133E-5	1.01992798E-5	3.62829252E-5	2.94570749E-5	9.00129932E-5	4.81352905E-4
4.42755000E+5	1.75000942E+1	0.00000000E+0	0.00000000E+0	1.40416311E-5	9.97617364E-6	3.61478759E-5	2.93857013E-5	8.95513820E-5	4.78884396E-4
4.49264000E+5	1.80000848E+1	0.00000000E+0	0.00000000E+0	1.40866475E-5	1.00270313E-5	3.58588589E-5	2.96047872E-5	8.95773249E-5	4.79023128E-4
4.69486000E+5	1.50000758E+1	0.00000000E+0	0.00000000E+0	1.40995847E-5	9.98331427E-6	3.60810502E-5	2.95650726E-5	8.97290218E-5	4.79834341E-4
4.77706000E+5	1.54999926E+1	0.00000000E+0	0.00000000E+0	1.40477227E-5	1.00550127E-5	3.60124333E-5	2.94358944E-5	8.95510631E-5	4.78882691E-4
4.84339000E+5	1.59999587E+1	0.00000000E+0	0.00000000E+0	1.40279906E-5	1.00593907E-5	3.62316711E-5	2.92974209E-5	8.96164733E-5	4.79232477E-4
4.90917000E+5	1.65000623E+1	0.00000000E+0	0.00000000E+0	1.39632897E-5	1.00760114E-5	3.60832049E-5	2.93570494E-5	8.94795554E-5	4.78500296E-4
4.97555000E+5	1.69999764E+1	0.00000000E+0	0.00000000E+0	1.39432000E-5	1.00380224E-5	3.61018462E-5	2.94226801E-5	8.95057487E-5	4.78640367E-4
5.04176000E+5	1.74999690E+1	0.00000000E+0	0.00000000E+0	1.40453862E-5	1.00328696E-5	3.59443290E-5	2.93752586E-5	8.93978434E-5	4.78063334E-4
5.10693000E+5	1.79999789E+1	0.00000000E+0	0.00000000E+0	1.39232920E-5	1.00053144E-5	3.59482272E-5	2.92633211E-5	8.91401546E-5	4.76685319E-4
5.17329000E+5	1.85000468E+1	0.00000000E+0	0.00000000E+0	1.40863823E-5	1.00378913E-5	3.59459294E-5	2.92859083E-5	8.93561112E-5	4.77840167E-4
5.23667000E+5	1.90000082E+1	0.00000000E+0	0.00000000E+0	1.39991717E-5	9.94785845E-6	3.57348246E-5	2.90037398E-5	8.86855946E-5	4.74254517E-4
5.30040000E+5	1.95000192E+1	0.00000000E+0	0.00000000E+0	1.40485065E-5	1.00029004E-5	3.59440697E-5	2.93406909E-5	8.93361675E-5	4.77733516E-4
5.36418000E+5	2.00000243E+1	0.00000000E+0	0.00000000E+0	1.39676170E-5	1.00520533E-5	3.59204544E-5	2.92646562E-5	8.92047810E-5	4.77030914E-4
5.42535000E+5	2.04999391E+1	0.00000000E+0	0.00000000E+0	1.39747726E-5	9.98132944E-6	3.60111101E-5	2.93186789E-5	8.92858910E-5	4.77464658E-4
5.49501000E+5	2.10000866E+1	0.00000000E+0	0.00000000E+0	1.38710277E-5	1.00615811E-5	3.60369606E-5	2.92627876E-5	8.92323571E-5	4.77178380E-4
5.55399000E+5	2.15000637E+1	0.00000000E+0	0.00000000E+0	1.39188843E-5	1.00492758E-5	3.58264757E-5	2.94084673E-5	8.92031031E-5	4.77021942E-4
5.61493000E+5	2.20000397E+1	0.00000000E+0	0.00000000E+0	1.39563696E-5	1.00576353E-5	3.60672815E-5	2.92541479E-5	8.93354344E-5	4.77729595E-4
5.67455000E+5	2.24998876E+1	0.00000000E+0	0.00000000E+0	1.41219394E-5	9.93897735E-6	3.58915253E-5	2.91523462E-5	8.91047882E-5	4.76496194E-4
5.73399000E+5	2.30000013E+1	0.00000000E+0	0.00000000E+0	1.40657352E-5	1.00823325E-5	3.58574582E-5	2.94762766E-5	8.94818025E-5	4.78512313E-4
5.79166000E+5	2.35002679E+1	0.00000000E+0	0.00000000E+0	1.39189111E-5	9.97465968E-6	3.58971728E-5	2.92558526E-5	8.90465962E-5	4.76185006E-4
5.84916000E+5	2.39999790E+1	0.00000000E+0	0.00000000E+0	1.40254604E-5	1.00767148E-5	3.60184683E-5	2.93126827E-5	8.94333261E-5	4.78253081E-4
5.90814000E+5	2.45000002E+1	0.00000000E+0	0.00000000E+0	1.40196728E-5	1.00224865E-5	3.57739730E-5	2.93693995E-5	8.91855316E-5	4.76927977E-4
5.96792000E+5	2.49998323E+1	0.00000000E+0	0.00000000E+0	1.38796435E-5	9.97563421E-6	3.60279305E-5	2.93438738E-5	8.92270820E-5	4.77150171E-4
6.12150000E+5	2.30003039E+1	0.00000000E+0	0.00000000E+0	1.39867889E-5	1.00622577E-5	3.59866722E-5	2.93576931E-5	8.93934118E-5	4.78039635E-4
6.19402000E+5	2.35002227E+1	0.00000000E+0	0.00000000E+0	1.40630083E-5	1.00881469E-5	3.60629661E-5	2.93788915E-5	8.95930129E-5	4.79107021E-4
6.25128000E+5	2.39999790E+1	0.00000000E+0	0.00000000E+0	1.38942139E-5	1.00316775E-5	3.59674437E-5	2.93313479E-5	8.92246830E-5	4.77137342E-4
6.30996000E+5	2.45001473E+1	0.00000000E+0	0.00000000E+0	1.42385381E-5	1.00607348E-5	3.61155434E-5	2.93188905E-5	8.97337067E-5	4.79859394E-4
6.36958000E+5	2.49999855E+1	0.00000000E+0	0.00000000E+0	1.39984237E-5	1.00179178E-5	3.60429270E-5	2.93471818E-5	8.94064503E-5	4.78109360E-4
6.42511000E+5	2.55000108E+1	0.00000000E+0	0.00000000E+0	1.39087336E-5	1.00798142E-5	3.61466332E-5	2.95498853E-5	8.96850663E-5	4.79599285E-4
6.48082000E+5	2.59999373E+1	0.00000000E+0	0.00000000E+0	1.39684336E-5	1.00694817E-5	3.62712576E-5	2.93642586E-5	8.96734315E-5	4.79537067E-4
6.53722000E+5	2.65000462E+1	0.00000000E+0	0.00000000E+0	1.38956355E-5	1.01675791E-5	3.62216337E-5	2.93487018E-5	8.96335500E-5	4.79323797E-4
6.59398000E+5	2.69999804E+1	0.00000000E+0	0.00000000E+0	1.39889704E-5	1.00937915E-5	3.63415016E-5	2.93063109E-5	8.97305745E-5	4.79842644E-4
6.64923000E+5	2.75000942E+1	0.00000000E+0	0.00000000E+0	1.40528308E-5	1.01106835E-5	3.62687482E-5	2.92820667E-5	8.97143292E-5	4.79755771E-4
6.70398000E+5	2.79999170E+1	0.00000000E+0	0.00000000E+0	1.40588598E-5	1.00246888E-5	3.59898819E-5	2.93287431E-5	8.94021737E-5	4.78086490E-4
6.75756000E+5	2.84997160E+1	0.00000000E+0	0.00000000E+0	1.40607135E-5	1.00090933E-5	3.62736745E-5	2.93809062E-5	8.97243875E-5	4.79809559E-4
6.81290000E+5	2.90000790E+1	0.00000000E+0	0.00000000E+0	1.39993565E-5	1.00435627E-5	3.59567059E-5	2.94899231E-5	8.94895481E-5	4.78553733E-4
6.86782000E+5	2.95002522E+1	0.00000000E+0	0.00000000E+0	1.40096473E-5	9.98951316E-6	3.59581394E-5	2.94270103E-5	8.93843102E-5	4.77990963E-4
6.92262000E+5	3.00001004E+1	0.00000000E+0	0.00000000E+0	1.39700698E-5	1.01124090E-5	3.59135641E-5	2.92914008E-5	8.92874437E-5	4.77472961E-4
6.97579000E+5	3.04999146E+1	0.00000000E+0	0.00000000E+0	1.40133874E-5	1.00867492E-5	3.60839052E-5	2.92079603E-5	8.93920022E-5	4.78032097E-4
7.02969000E+5	3.10001660E+1	0.00000000E+0	0.00000000E+0	1.38974266E-5	9.98066485E-6	3.59146429E-5	2.93964451E-5	8.91891794E-5	4.76947484E-4
7.08296000E+5	3.14999842E+1	0.00000000E+0	0.00000000E+0	1.39952348E-5	9.99374211E-6	3.58885271E-5	2.93840890E-5	8.92615931E-5	4.77334723E-4
7.13642000E+5	3.20000266E+1	0.00000000E+0	0.00000000E+0	1.41477691E-5	9.95338976E-6	3.60238714E-5	2.92192375E-5	8.93442678E-5	4.77776833E-4
7.18939000E+5	3.25000530E+1	0.00000000E+0	0.00000000E+0	1.40970277E-5	1.00590867E-5	3.59464182E-5	2.94062232E-5	8.95087557E-5	4.78656448E-4
7.24157000E+5	3.29997513E+1	0.00000000E+0	0.00000000E+0	1.38561563E-5	1.00704175E-5	3.62071200E-5	2.93806022E-5	8.95142960E-5	4.78686075E-4
7.29315000E+5	3.34999181E+1	0.00000000E+0	0.00000000E+0	1.39771627E-5	1.01031077E-5	3.60636098E-5	2.92838698E-5	8.94277500E-5	4.78223262E-4
7.34549000E+5	3.40004539E+1	0.00000000E+0	0.00000000E+0	1.41143965E-5	9.92385863E-6	3.59654499E-5	2.96815431E-5	8.96852481E-5	4.79600257E-4
7.39708000E+5	3.45000216E+1	0.00000000E+0	0.00000000E+0	1.40938627E-5	1.00599092E-5	3.58221901E-5	2.92155837E-5	8.91915457E-5	4.76960138E-4
7.44861000E+5	3.49996682E+1	0.00000000E+0	0.00000000E+0	1.39846878E-5	9.99266326E-6	3.61049189E-5	2.91970824E-5	8.92793523E-5	4.77429692E-4
7.50049000E+5	3.55004011E+1	0.00000000E+0	0.00000000E+0	1.39332073E-5	1.00308073E-5	3.60635949E-5	2.92812859E-5	8.93088954E-5	4.77587676E-4
7.55267000E+5	3.59998841E+1	0.00000000E+0	0.00000000E+0	1.39748679E-5	1.00677532E-5	3.61239029E-5	2.93445324E-5	8.95110565E-5	4.78668751E-4
7.60208000E+5	3.65000101E+1	0.00000000E+0	0.00000000E+0	1.39721798E-5	1.00464475E-5	3.60480083E-5	2.93533748E-5	8.94200104E-5	4.78181874E-4
7.65305000E+5	3.69993445E+1	0.00000000E+0	0.00000000E+0	1.39718221E-5	1.00217205E-5	3.60086424E-5	2.93761735E-5	8.93783586E-5	4.77959137E-4
7.70443000E+5	3.75008059E+1	0.00000000E+0	0.00000000E+0	1.39217632E-5	1.00272518E-5	3.60059364E-5	2.93073928E-5	8.92623442E-5	4.77338739E-4
7.75529000E+5	3.79996392E+1	0.00000000E+0	0.00000000E+0	1.40368091E-5	9.97361958E-6	3.56007797E-5	2.92668169E-5	8.88780253E-5	4.75283558E-4
7.80672000E+5	3.85004124E+1	0.00000000E+0	0.00000000E+0	1.40723394E-5	1.00253385E-5	3.59397246E-5	2.92992627E-5	8.93366652E-5	4.77736178E-4
7.85558000E+5	3.89997655E+1	0.00000000E+0	0.00000000E+0	1.39165448E-5	1.00477737E-5	3.60466613E-5	2.90842300E-5	8.90952097E-5	4.76444972E-4
7.90634000E+5	3.95003815E+1	0.00000000E+0	0.00000000E+0	1.40356617E-5	9.96829986E-6	3.61563398E-5	2.91659062E-5	8.93262076E-5	4.77680254E-4
7.95682000E+5	4.00002844E+1	0.00000000E+0	0.00000000E+0	1.39480071E-5	1.00015652E-5	3.60460295E-5	2.95215254E-5	8.95171272E-5	4.78701215E-4
8.00551000E+5	4.04998637E+1	0.00000000E+0	0.00000000E+0	1.41020285E-5	1.00291562E-5	3.57713831E-5	2.92096948E-5	8.91122626E-5	4.76536164E-4
8.05613000E+5	4.10002634E+1	0.00000000E+0	0.00000000E+0	1.40583323E-5	1.00926799E-5	3.59843744E-5	2.93376779E-5	8.94730645E-5	4.78465585E-4
8.10479000E+5	4.14999506E+1	0.00000000E+0	0.00000000E+0	1.40782790E-5	1.00502890E-5	3.59655989E-5	2.95746421E-5	8.96688091E-5	4.79512348E-4
8.15350000E+5	4.20001449E+1	0.00000000E+0	0.00000000E+0	1.40276657E-5	1.00354803E-5	3.57132984E-5	2.94582551E-5	8.92346995E-5	4.77190907E-4
8.20372000E+5	4.24999949E+1	0.00000000E+0	0.00000000E+0	1.39189439E-5	9.97398019E-6	3.60819502E-5	2.91763042E-5	8.91511785E-5	4.76744270E-4
8.25195000E+5	4.29996446E+1	0.00000000E+0	0.00000000E+0	1.41752469E-5	1.00549203E-5	3.60846741E-5	2.91806673E-5	8.94955086E-5	4.78585608E-4
8.30735000E+5	4.35006652E+1	0.00000000E+0	0.00000000E+0	1.39523970E-5	1.00249451E-5	3.58765853E-5	2.92329495E-5	8.90868770E-5	4.76400412E-4
8.35498000E+5	4.39990992E+1	0.00000000E+0	0.00000000E+0	1.40254455E-5	1.00289357E-5	3.61339433E-5	2.94761097E-5	8.96644342E-5	4.79488953E-4
8.40518000E+5	4.45006718E+1	0.00000000E+0	0.00000000E+0	1.40763568E-5	1.00161266E-5	3.60796524E-5	2.94327711E-5	8.96049070E-5	4.79170626E-4
8.45269000E+5	4.49995773E+1	0.00000000E+0	0.00000000E+0	1.40335130E-5	9.99090493E-6	3.59046830E-5	2.94152474E-5	8.93443482E-5	4.77777263E-4
8.66932000E+5	2.30002606E+1	0.00000000E+0	0.00000000E+0	1.41999172E-5	1.00527060E-5	3.61871286E-5	2.95037513E-5	8.99435031E-5	4.80981300E-4
8.73962000E+5	2.34995910E+1	0.00000000E+0	0.00000000E+0	1.40130328E-5	1.00416791E-5	3.60947235E-5	2.93885981E-5	8.95380335E-5	4.78813014E-4
8.79726000E+5	2.40000731E+1	0.00000000E+0	0.00000000E+0	1.39525371E-5	1.00948733E-5	3.61658288E-5	2.90891503E-5	8.93023895E-5	4.77552885E-4
8.85654000E+5	2.45000983E+1	0.00000000E+0	0.00000000E+0	1.40869962E-5	1.00322378E-5	3.59402848E-5	2.92286163E-5	8.92881351E-5	4.77476658E-4
8.91588000E+5	2.49998834E+1	0.00000000E+0	0.00000000E+0	1.39241444E-5	1.00436670E-5	3.59064264E-5	2.93091869E-5	8.91834246E-5	4.76916709E-4
8.97111000E+5	2.55000640E+1	0.00000000E+0	0.00000000E+0	1.42151730E-5	1.01032925E-5	3.59687014E-5	2.95033758E-5	8.97905427E-5	4.80163330E-4
9.02681000E+5	2.59998269E+1	0.00000000E+0	0.00000000E+0	1.40592175E-5	1.00625140E-5	3.59795345E-5	2.93834841E-5	8.94847500E-5	4.78528075E-4
9.08265000E+5	2.65001609E+1	0.00000000E+0	0.00000000E+0	1.39239387E-5	1.00288314E-5	3.59701080E-5	2.92780136E-5	8.92008918E-5	4.77010116E-4
9.13845000E+5	2.69999804E+1	0.00000000E+0	0.00000000E+0	1.41262906E-5	1.00723875E-5	3.60920323E-5	2.95694595E-5	8.98601699E-5	4.80535668E-4
9.19321000E+5	2.75000942E+1	0.00000000E+0	0.00000000E+0	1.39071064E-5	1.00491715E-5	3.60829575E-5	2.90391569E-5	8.90783923E-5	4.76355039E-4
9.24810000E+5	2.79999170E+1	0.00000000E+0	0.00000000E+0	1.40443103E-5	1.01002824E-5	3.59883649E-5	2.94695412E-5	8.96024990E-5	4.79157748E-4
9.30163000E+5	2.84997823E+1	0.00000000E+0	0.00000000E+0	1.41026871E-5	1.00518358E-5	3.61404343E-5	2.94177120E-5	8.97126692E-5	4.79746894E-4
9.35642000E+5	2.90000790E+1	0.00000000E+0	0.00000000E+0	1.40833424E-5	1.00063932E-5	3.59620733E-5	2.92337423E-5	8.92855512E-5	4.77462841E-4
9.41130000E+5	2.95001100E+1	0.00000000E+0	0.00000000E+0	1.41045677E-5	9.99702036E-6	3.59283550E-5	2.94914013E-5	8.95213442E-5	4.78723766E-4
9.46658000E+5	2.99999533E+1	0.00000000E+0	0.00000000E+0	1.40147077E-5	1.00235742E-5	3.59985096E-5	2.92152380E-5	8.92520296E-5	4.77283581E-4
9.51976000E+5	3.05002187E+1	0.00000000E+0	0.00000000E+0	1.40726196E-5	1.00787085E-5	3.59297527E-5	2.92197471E-5	8.93008279E-5	4.77544534E-4
9.57314000E+5	3.09999305E+1	0.00000000E+0	0.00000000E+0	1.38308989E-5	1.00284767E-5	3.58366622E-5	2.94069266E-5	8.91029643E-5	4.76486440E-4
9.62649000E+5	3.15000653E+1	0.00000000E+0	0.00000000E+0	1.39286445E-5	1.00044680E-5	3.57048554E-5	2.94364994E-5	8.90744673E-5	4.76334050E-4
9.67975000E+5	3.19998592E+1	0.00000000E+0	0.00000000E+0	1.40493052E-5	1.00594086E-5	3.59760298E-5	2.94844722E-5	8.95692157E-5	4.78979763E-4
9.73250000E+5	3.25000530E+1	0.00000000E+0	0.00000000E+0	1.40969085E-5	1.00049210E-5	3.62001134E-5	2.94462686E-5	8.97482115E-5	4.79936960E-4
9.78624000E+5	3.29998403E+1	0.00000000E+0	0.00000000E+0	1.39644163E-5	9.98791575E-6	3.59284861E-5	2.92525177E-5	8.91333358E-5	4.76648855E-4
9.83787000E+5	3.35000098E+1	0.00000000E+0	0.00000000E+0	1.39101581E-5	9.99549150E-6	3.58717097E-5	2.92980110E-5	8.90753703E-5	4.76338879E-4
9.89021000E+5	3.40001705E+1	0.00000000E+0	0.00000000E+0	1.40469449E-5	9.90781902E-6	3.59539164E-5	2.93399965E-5	8.92486768E-5	4.77265651E-4
9.94246000E+5	3.45001189E+1	0.00000000E+0	0.00000000E+0	1.40279369E-5	1.00464594E-5	3.59897031E-5	2.92775934E-5	8.93416928E-5	4.77763063E-4
9.99530000E+5	3.49999685E+1	0.00000000E+0	0.00000000E+0	1.39259802E-5	1.00151491E-5	3.59182371E-5	2.91659956E-5	8.90253620E-5	4.76071455E-4
1.00470800E+6	3.54999892E+1	0.00000000E+0	0.00000000E+0	1.39911460E-5	1.01268423E-5	3.59733207E-5	2.93318307E-5	8.94231396E-5	4.78198608E-4
1.00991600E+6	3.59999900E+1	0.00000000E+0	0.00000000E+0	1.40596258E-5	1.00417566E-5	3.58377529E-5	2.93035125E-5	8.92426478E-5	4.77233411E-4
1.01491500E+6	3.65001190E+1	0.00000000E+0	0.00000000E+0	1.38455795E-5	1.00483221E-5	3.59523697E-5	2.90514742E-5	8.88977455E-5	4.75389013E-4
1.02010900E+6	3.70001276E+1	0.00000000E+0	0.00000000E+0	1.38153957E-5	1.00109619E-5	3.59719677E-5	2.91436200E-5	8.89419453E-5	4.75625376E-4
1.02528900E+6	3.74998866E+1	0.00000000E+0	0.00000000E+0	1.39897065E-5	1.00296539E-5	3.57721908E-5	2.92676961E-5	8.90592473E-5	4.76252659E-4
1.03033000E+6	3.79995212E+1	0.00000000E+0	0.00000000E+0	1.41926782E-5	1.00639772E-5	3.58540220E-5	2.91268294E-5	8.92375069E-5	4.77205919E-4
1.03543400E+6	3.85000491E+1	0.00000000E+0	0.00000000E+0	1.39530526E-5	1.00348932E-5	3.59008951E-5	2.92706256E-5	8.91594665E-5	4.76788591E-4
1.04024900E+6	3.90002626E+1	0.00000000E+0	0.00000000E+0	1.39707493E-5	9.99982774E-6	3.61032648E-5	2.90823554E-5	8.91561972E-5	4.76771108E-4
1.04532300E+6	3.95001266E+1	0.00000000E+0	0.00000000E+0	1.40428858E-5	9.98070359E-6	3.58746989E-5	2.91672533E-5	8.90655415E-5	4.76286318E-4
1.05044600E+6	4.00000229E+1	0.00000000E+0	0.00000000E+0	1.39664518E-5	1.00051713E-5	3.59445943E-5	2.92566543E-5	8.91728716E-5	4.76860276E-4
1.05528100E+6	4.05002658E+1	0.00000000E+0	0.00000000E+0	1.39048831E-5	1.00382310E-5	3.58691467E-5	2.91932677E-5	8.90055286E-5	4.75965393E-4
1.06034500E+6	4.09999887E+1	0.00000000E+0	0.00000000E+0	1.39220612E-5	9.95917439E-6	3.58337922E-5	2.91144525E-5	8.88294803E-5	4.75023959E-4
1.06523100E+6	4.14996691E+1	0.00000000E+0	0.00000000E+0	1.40309768E-5	1.00104761E-5	3.58897043E-5	2.92298382E-5	8.91609954E-5	4.76796767E-4
1.07005700E+6	4.20001449E+1	0.00000000E+0	0.00000000E+0	1.39853554E-5	1.00649250E-5	3.60181375E-5	2.91829919E-5	8.92514097E-5	4.77280266E-4
1.07499500E+6	4.25002901E+1	0.00000000E+0	0.00000000E+0	1.38743089E-5	1.00692791E-5	3.61513211E-5	2.93120330E-5	8.94069421E-5	4.78111990E-4
1.08009300E+6	4.29997956E+1	0.00000000E+0	0.00000000E+0	1.39868515E-5	1.01362777E-5	3.61361755E-5	2.91446184E-5	8.94039231E-5	4.78095845E-4
1.08484600E+6	4.34995829E+1	0.00000000E+0	0.00000000E+0	1.39049815E-5	1.00342017E-5	3.58982427E-5	2.93622290E-5	8.91996550E-5	4.77003502E-4
1.08958000E+6	4.40002065E+1	0.00000000E+0	0.00000000E+0	1.39904873E-5	1.01006401E-5	3.59737290E-5	2.94922774E-5	8.95571339E-5	4.78915154E-4
1.09460600E+6	4.45005100E+1	0.00000000E+0	0.00000000E+0	1.40400188E-5	1.00759339E-5	3.62921609E-5	2.93498372E-5	8.97579509E-5	4.79989042E-4
1.09940200E+6	4.50000737E+1	0.00000000E+0	0.00000000E+0	1.39409112E-5	1.01001424E-5	3.61355258E-5	2.93735003E-5	8.95500796E-5	4.78877431E-4
