G:\BEAR_storage\User_Experiments\20220317_arneodo\Bpm\file(1)_bpm_0001.txt
Ring Energy (GeV): 2
Lifetime (hours): 14.3314
Scan beginning: 3/17/2022	8:36:15 AM
Ring current (mA): 308.46
Source position: x (mm): 0.007 x' (mrad): -0.002 y (mm): 0.004 y' (mrad): -0.002
Scan end: 3/17/2022	8:38:46 AM
Ring current (mA): 308.79
Source position: x (mm): 0.005 x' (mrad): -0.001 y (mm): 0.005 y' (mrad): -0.001

SCAN TYPE: TIME

FILE INFO: FILE INFO:

SCAN PARAMETERS
waiting time (ms): 0
Number of scans: 1
Current scan number: 1
DARK OFF 
PREDARK OFF 

SCAN PARAMETERS
Number of points:  100

BEAR MONOCHROMATOR CONFIGURATION: 
Current Grating Position:     -145759.70
Current Mirror Position: 8700.2
Current Grating: G1200
P2 phiz position:  0.0000
Mono axis position: 25.0000
Current Photon Energy (eV): 119.999
Current Deviation Angle: 155.456
Vertical Exit Slits (um): 50.000
Exit slit y axis position: 1.2375
Horizontal Exit Slits (um):  889.156
Exit slit z axis position: 1.9229
Mitutoyo position (mm): 

Dose on sample (mJ/cm^2): NaN

ENERGY CALIBRATION:
offset grating G1200: yes
Delta 0 order G1200:  -1800.0
offset grating G1800: not
Delta 0 order G1800:  0.0
offset grating GNIM: not
Delta 0 order GNIM:  0.0
ZERO ORDER POSITIONS:
Grating G1200: Mirror position:  4938.0
Grating position: -105355.0
Grating G1800: 
Mirror position:  4938.0
Grating position: -106345.0
Grating GNIM: 
Mirror position:  10000.0
Grating position: 227300.0

Initial filter: Full Beam

EXPERIMENTAL CHAMBER CONFIGURATION: 
PsiC (deg):   -0.000186
Phi Analyzer (degrees): -0.005682
Theta Manipulator (degrees): 0.999920
Theta Analyzer (degrees): -0.001619
PhiM (degrees): 92.998598
XM (mm): 5.005937
YM (mm): 22.999800
ZM (mm): (Warning: for kinetic energy scans, 
this parameter is given in the scan settings) 
-7.503688
TiltM (°): 0.000138

COIL VALUES
Ix (amps):2.820
Iy (amps): 6.789
Iz (amps): 37.337

POLARIZATION SELECTOR CONFIGURATION:
Psi1 (rad): -0.001665535
Psi2 (rad): 0.001417093
Z min position (mm): 46.599650
DZ position (mm): 18.599100
Zmin 0 (mm): 66.500000
DZ0 (mm): 53.000000

BEAM SELECTOR CONFIGURATION:
Zmin position (mm): NaN
DZ position (mm): NaN
Y+ position (mm): NaN
Y- position (mm): NaN

CHANNEL ELECTRON MULTIPLIER CONFIGURATION:
CEM configured: OFF
Bias CEM: 0.000000

FLUORESCENCE DETECTOR CONFIGURATION:
Not configured

LUMINESCENCE MONOCHROMATOR CONFIGURATION:
Optical fiber position (mm): 0.000000
Optical fiber Switch inside: ON
Optical fiber Switch outside: ON
Monochromator wavelength (A): 0.000000
Limit Switches: ON

I0 MONITOR PARAMETERS:
I0 detector position(mm): -1.924999E+2
Lower switch: OFF
Upper switch: OFF
Valve status:open

PRESSURE PARAMETERS:
Monitor chamber pressure (mbar): 8.784e-10
Experimental chamber pressure -ION GAUGE-(mbar): 0.000000E+0

XMCD PARAMETERS:
Xmcd OFF
Xmcd Direction -
Xmcd current (A): 0.000000

Gated scan off

Instrument 1: AMMETER KEITHLEY 6517A B
Measure type: Current
range type: set range value
range value (ampere):  20 nA
Integration time:  set NPLC value
NPLC value: 10.000
Digital filter count: 2
SAMPLE BIAS (V): 0.000
Vsource: ON
Output Voltage value: -0.000
Vsource range: 1000 V

Instrument 2: AMMETER KEITHLEY 6517A A
Measure type: Current
range type: set range value
range value (ampere):  20 nA
Integration time:  set NPLC value
NPLC value: 10.000
Digital filter count: 2
Vsource: OFF
Output Voltage value: -0.000
Vsource range: 100 V
Trigger source: bus

Instrument 3: None


________________________________________________________________________________

RelativeTime (msec)	Number	Absolute time (msec)	Relative time (msec)	a) I_1 (Amps)	b) I_2 (Amps)	d) I_3 (Amps)	c) I_4 (Amps)	I_BPM_sum (Amps)	Delta Z(mm)	
________________________________________________________________________________

1.61900000E+3	0.00000000E+0	7.68488160E+7	1.61900000E+3	1.35931955E-5	9.77395889E-6	3.63895340E-5	2.99358046E-5	8.96924930E-5	4.79639000E-4
3.81700000E+3	1.00000000E+0	7.68510140E+7	3.81700000E+3	1.36763351E-5	9.81127439E-6	3.64689602E-5	2.97829276E-5	8.97394973E-5	4.79890360E-4
5.30900000E+3	2.00000000E+0	7.68525060E+7	5.30900000E+3	1.36141883E-5	9.79740140E-6	3.63860502E-5	2.99969172E-5	8.97945571E-5	4.80184797E-4
6.83500000E+3	3.00000000E+0	7.68540320E+7	6.83500000E+3	1.36401550E-5	9.73326978E-6	3.64277168E-5	2.96807712E-5	8.94819128E-5	4.78512903E-4
8.36900000E+3	4.00000000E+0	7.68555660E+7	8.36900000E+3	1.37239324E-5	9.72474333E-6	3.63353147E-5	2.97989315E-5	8.95829218E-5	4.79053058E-4
9.93600000E+3	5.00000000E+0	7.68571330E+7	9.93600000E+3	1.37059615E-5	9.72291049E-6	3.63924696E-5	2.98160797E-5	8.96374213E-5	4.79344499E-4
1.14200000E+4	6.00000000E+0	7.68586170E+7	1.14200000E+4	1.37443708E-5	9.72875175E-6	3.64436640E-5	2.96343898E-5	8.95511764E-5	4.78883296E-4
1.29030000E+4	7.00000000E+0	7.68601000E+7	1.29030000E+4	1.36396663E-5	9.68745466E-6	3.64905609E-5	2.96599096E-5	8.94775915E-5	4.78489794E-4
1.43890000E+4	8.00000000E+0	7.68615860E+7	1.43890000E+4	1.36842208E-5	9.71990344E-6	3.63972379E-5	2.96600675E-5	8.94614297E-5	4.78403367E-4
1.59170000E+4	9.00000000E+0	7.68631140E+7	1.59170000E+4	1.35794268E-5	9.72147104E-6	3.67332294E-5	2.96159839E-5	8.96501112E-5	4.79412359E-4
1.74020000E+4	1.00000000E+1	7.68645990E+7	1.74020000E+4	1.37075709E-5	9.70675167E-6	3.66693540E-5	2.98012322E-5	8.98849088E-5	4.80667961E-4
1.88980000E+4	1.10000000E+1	7.68660950E+7	1.88980000E+4	1.36128382E-5	9.76065216E-6	3.64541157E-5	2.97099894E-5	8.95375955E-5	4.78810671E-4
2.04360000E+4	1.20000000E+1	7.68676330E+7	2.04360000E+4	1.37697862E-5	9.66520425E-6	3.63833381E-5	2.97254359E-5	8.95437645E-5	4.78843661E-4
2.19300000E+4	1.30000000E+1	7.68691270E+7	2.19300000E+4	1.36103199E-5	9.74598047E-6	3.65697964E-5	2.96202307E-5	8.95463275E-5	4.78857367E-4
2.34230000E+4	1.40000000E+1	7.68706200E+7	2.34230000E+4	1.36900203E-5	9.69445225E-6	3.66282507E-5	2.95059984E-5	8.95187216E-5	4.78709741E-4
2.49280000E+4	1.50000000E+1	7.68721250E+7	2.49280000E+4	1.36825280E-5	9.80708716E-6	3.66293742E-5	2.98543995E-5	8.99733889E-5	4.81141117E-4
2.64310000E+4	1.60000000E+1	7.68736280E+7	2.64310000E+4	1.35236726E-5	9.80639277E-6	3.65476443E-5	2.97090864E-5	8.95867961E-5	4.79073776E-4
2.79490000E+4	1.70000000E+1	7.68751460E+7	2.79490000E+4	1.35982738E-5	9.67539962E-6	3.66490795E-5	2.96090579E-5	8.95318108E-5	4.78779737E-4
2.94280000E+4	1.80000000E+1	7.68766250E+7	2.94280000E+4	1.37077258E-5	9.72979185E-6	3.65916355E-5	2.97849363E-5	8.98140895E-5	4.80289249E-4
3.09130000E+4	1.90000000E+1	7.68781100E+7	3.09130000E+4	1.36862354E-5	9.72696957E-6	3.63918258E-5	2.98775440E-5	8.96825748E-5	4.79585962E-4
3.23900000E+4	2.00000000E+1	7.68795870E+7	3.23900000E+4	1.37273447E-5	9.71654173E-6	3.64386453E-5	2.95855706E-5	8.94681024E-5	4.78439050E-4
3.38750000E+4	2.10000000E+1	7.68810720E+7	3.38750000E+4	1.36384474E-5	9.81467483E-6	3.63936080E-5	2.99730933E-5	8.98198235E-5	4.80319912E-4
3.53630000E+4	2.20000000E+1	7.68825600E+7	3.53630000E+4	1.36586325E-5	9.84229563E-6	3.65710451E-5	2.98484510E-5	8.99204242E-5	4.80857883E-4
3.69020000E+4	2.30000000E+1	7.68840990E+7	3.69020000E+4	1.37376653E-5	9.75341019E-6	3.65292026E-5	2.98195517E-5	8.98398298E-5	4.80426897E-4
3.84040000E+4	2.40000000E+1	7.68856010E+7	3.84040000E+4	1.35857658E-5	9.73799345E-6	3.62970515E-5	2.97309851E-5	8.93517958E-5	4.77817090E-4
3.98880000E+4	2.50000000E+1	7.68870850E+7	3.98880000E+4	1.35582970E-5	9.82277212E-6	3.65744396E-5	2.96670413E-5	8.96225500E-5	4.79264973E-4
4.13780000E+4	2.60000000E+1	7.68885750E+7	4.13780000E+4	1.37763666E-5	9.75799975E-6	3.64358528E-5	2.97753191E-5	8.97455382E-5	4.79922664E-4
4.28640000E+4	2.70000000E+1	7.68900610E+7	4.28640000E+4	1.36995272E-5	9.81708882E-6	3.66324737E-5	2.98321044E-5	8.99811941E-5	4.81182856E-4
4.43460000E+4	2.80000000E+1	7.68915430E+7	4.43460000E+4	1.37387739E-5	9.78839216E-6	3.63363637E-5	2.97578698E-5	8.96213996E-5	4.79258821E-4
4.58300000E+4	2.90000000E+1	7.68930270E+7	4.58300000E+4	1.39477419E-5	9.81472848E-6	3.64395870E-5	3.00422019E-5	9.02442593E-5	4.82589622E-4
4.73250000E+4	3.00000000E+1	7.68945220E+7	4.73250000E+4	1.36398481E-5	9.77684674E-6	3.67159559E-5	2.97054773E-5	8.98381281E-5	4.80417797E-4
4.88170000E+4	3.10000000E+1	7.68960140E+7	4.88170000E+4	1.37848036E-5	9.83033893E-6	3.66695805E-5	2.96607321E-5	8.99454552E-5	4.80991739E-4
5.03620000E+4	3.20000000E+1	7.68975590E+7	5.03620000E+4	1.37510763E-5	9.75230154E-6	3.63616420E-5	2.99052662E-5	8.97702861E-5	4.80055006E-4
5.18450000E+4	3.30000000E+1	7.68990420E+7	5.18450000E+4	1.36148409E-5	9.81303570E-6	3.66961434E-5	2.98266864E-5	8.99507064E-5	4.81019820E-4
5.33270000E+4	3.40000000E+1	7.69005240E+7	5.33270000E+4	1.37308793E-5	9.78818056E-6	3.65827515E-5	2.98664725E-5	8.99682838E-5	4.81113817E-4
5.48110000E+4	3.50000000E+1	7.69020080E+7	5.48110000E+4	1.37783752E-5	9.72508904E-6	3.66893067E-5	2.99619561E-5	9.01547271E-5	4.82110840E-4
5.62820000E+4	3.60000000E+1	7.69034790E+7	5.62820000E+4	1.36813776E-5	9.78126642E-6	3.66275891E-5	2.98387384E-5	8.99289715E-5	4.80903591E-4
5.77670000E+4	3.70000000E+1	7.69049640E+7	5.77670000E+4	1.37061225E-5	9.80086741E-6	3.68225082E-5	2.99824482E-5	9.03119463E-5	4.82951585E-4
5.92490000E+4	3.80000000E+1	7.69064460E+7	5.92490000E+4	1.36990146E-5	9.90029989E-6	3.67138579E-5	2.98348373E-5	9.01480097E-5	4.82074918E-4
6.07330000E+4	3.90000000E+1	7.69079300E+7	6.07330000E+4	1.38112979E-5	9.77005181E-6	3.66327031E-5	2.97966903E-5	9.00107431E-5	4.81340872E-4
6.22270000E+4	4.00000000E+1	7.69094240E+7	6.22270000E+4	1.36774377E-5	9.76829943E-6	3.65664615E-5	2.96911960E-5	8.97033947E-5	4.79697298E-4
6.37110000E+4	4.10000000E+1	7.69109080E+7	6.37110000E+4	1.36345880E-5	9.75574371E-6	3.63849147E-5	2.97729677E-5	8.95482140E-5	4.78867455E-4
6.51940000E+4	4.20000000E+1	7.69123910E+7	6.51940000E+4	1.37650536E-5	9.80323074E-6	3.66078271E-5	2.98902726E-5	9.00663841E-5	4.81638418E-4
6.66800000E+4	4.30000000E+1	7.69138770E+7	6.66800000E+4	1.37498663E-5	9.79949651E-6	3.66146996E-5	2.99216515E-5	9.00857139E-5	4.81741785E-4
6.81650000E+4	4.40000000E+1	7.69153620E+7	6.81650000E+4	1.36180328E-5	9.75145516E-6	3.65712597E-5	2.98004722E-5	8.97412198E-5	4.79899571E-4
6.96490000E+4	4.50000000E+1	7.69168460E+7	6.96490000E+4	1.38623731E-5	9.74965212E-6	3.65133865E-5	2.98482632E-5	8.99736750E-5	4.81142647E-4
7.11340000E+4	4.60000000E+1	7.69183310E+7	7.11340000E+4	1.37169616E-5	9.81133399E-6	3.67369249E-5	2.98902756E-5	9.01554960E-5	4.82114952E-4
7.26200000E+4	4.70000000E+1	7.69198170E+7	7.26200000E+4	1.36410729E-5	9.73021504E-6	3.67298498E-5	2.96182191E-5	8.97193569E-5	4.79782657E-4
7.41070000E+4	4.80000000E+1	7.69213040E+7	7.41070000E+4	1.37812303E-5	9.74670169E-6	3.68147447E-5	2.97844445E-5	9.01271212E-5	4.81963215E-4
7.55890000E+4	4.90000000E+1	7.69227860E+7	7.55890000E+4	1.35290013E-5	9.79834614E-6	3.65681394E-5	2.97824865E-5	8.96779734E-5	4.79561355E-4
7.70740000E+4	5.00000000E+1	7.69242710E+7	7.70740000E+4	1.37632863E-5	9.79189393E-6	3.68504777E-5	2.98468417E-5	9.02524996E-5	4.82633688E-4
7.93370000E+4	5.10000000E+1	7.69265340E+7	7.93370000E+4	1.36125730E-5	9.77862296E-6	3.66298213E-5	2.98928684E-5	8.99138856E-5	4.80822918E-4
8.08200000E+4	5.20000000E+1	7.69280170E+7	8.08200000E+4	1.36662559E-5	9.71107301E-6	3.65722402E-5	2.97417319E-5	8.96913010E-5	4.79632625E-4
8.23060000E+4	5.30000000E+1	7.69295030E+7	8.23060000E+4	1.38331996E-5	9.76061639E-6	3.64040299E-5	2.99947566E-5	8.99926025E-5	4.81243863E-4
8.37890000E+4	5.40000000E+1	7.69309860E+7	8.37890000E+4	1.36884825E-5	9.73178860E-6	3.66210087E-5	2.98981285E-5	8.99394083E-5	4.80959403E-4
8.52770000E+4	5.50000000E+1	7.69324740E+7	8.52770000E+4	1.37724595E-5	9.76159391E-6	3.66090878E-5	2.98609561E-5	9.00040972E-5	4.81305333E-4
8.67660000E+4	5.60000000E+1	7.69339630E+7	8.67660000E+4	1.38347970E-5	9.80533478E-6	3.67819741E-5	2.97655469E-5	9.01876527E-5	4.82286913E-4
8.82510000E+4	5.70000000E+1	7.69354480E+7	8.82510000E+4	1.36992590E-5	9.79133067E-6	3.67349251E-5	2.98756605E-5	9.01011753E-5	4.81824467E-4
8.97370000E+4	5.80000000E+1	7.69369340E+7	8.97370000E+4	1.36807667E-5	9.81477914E-6	3.67622002E-5	2.99046522E-5	9.01623982E-5	4.82151862E-4
9.12220000E+4	5.90000000E+1	7.69384190E+7	9.12220000E+4	1.37267099E-5	9.82822595E-6	3.66316899E-5	2.97889060E-5	8.99755317E-5	4.81152576E-4
9.27060000E+4	6.00000000E+1	7.69399030E+7	9.27060000E+4	1.37165771E-5	9.72935077E-6	3.64936693E-5	2.97243422E-5	8.96639394E-5	4.79486307E-4
9.41890000E+4	6.10000000E+1	7.69413860E+7	9.41890000E+4	1.36972056E-5	9.78637156E-6	3.65146770E-5	2.96345865E-5	8.96328407E-5	4.79320004E-4
9.56760000E+4	6.20000000E+1	7.69428730E+7	9.56760000E+4	1.36792557E-5	9.78471455E-6	3.65146740E-5	2.97264909E-5	8.97051352E-5	4.79706605E-4
9.71600000E+4	6.30000000E+1	7.69443570E+7	9.71600000E+4	1.37416707E-5	9.82257543E-6	3.66701110E-5	3.00200647E-5	9.02544219E-5	4.82643967E-4
9.86460000E+4	6.40000000E+1	7.69458430E+7	9.86460000E+4	1.36736767E-5	9.75371417E-6	3.66826101E-5	2.98230326E-5	8.99330336E-5	4.80925313E-4
1.00129000E+5	6.50000000E+1	7.69473260E+7	1.00129000E+5	1.37868123E-5	9.78315589E-6	3.64950283E-5	2.98848277E-5	8.99498242E-5	4.81015103E-4
1.01613000E+5	6.60000000E+1	7.69488100E+7	1.01613000E+5	1.36250721E-5	9.71022364E-6	3.65596785E-5	2.97930902E-5	8.96880644E-5	4.79615318E-4
1.03099000E+5	6.70000000E+1	7.69502960E+7	1.03099000E+5	1.36507408E-5	9.72360786E-6	3.64330723E-5	2.97166562E-5	8.95240771E-5	4.78738380E-4
1.04585000E+5	6.80000000E+1	7.69517820E+7	1.04585000E+5	1.36618929E-5	9.74437115E-6	3.65946575E-5	2.98665857E-5	8.98675072E-5	4.80574905E-4
1.06076000E+5	6.90000000E+1	7.69532730E+7	1.06076000E+5	1.36774973E-5	9.81387911E-6	3.65508063E-5	2.98476851E-5	8.98898679E-5	4.80694481E-4
1.07563000E+5	7.00000000E+1	7.69547600E+7	1.07563000E+5	1.36396603E-5	9.74086639E-6	3.64919915E-5	2.97677970E-5	8.96403151E-5	4.79359974E-4
1.09081000E+5	7.10000000E+1	7.69562780E+7	1.09081000E+5	1.38285236E-5	9.80412481E-6	3.65217938E-5	2.98880941E-5	9.00425363E-5	4.81510889E-4
1.10603000E+5	7.20000000E+1	7.69578000E+7	1.10603000E+5	1.37728320E-5	9.81139062E-6	3.66281344E-5	2.99504048E-5	9.01627618E-5	4.82153807E-4
1.12088000E+5	7.30000000E+1	7.69592850E+7	1.12088000E+5	1.37513833E-5	9.78599605E-6	3.65490063E-5	2.98908388E-5	8.99772245E-5	4.81161628E-4
1.13577000E+5	7.40000000E+1	7.69607740E+7	1.13577000E+5	1.37591974E-5	9.76165053E-6	3.65871086E-5	2.97575122E-5	8.98654687E-5	4.80564004E-4
1.15063000E+5	7.50000000E+1	7.69622600E+7	1.15063000E+5	1.36403428E-5	9.81828389E-6	3.65587874E-5	2.99351877E-5	8.99526018E-5	4.81029956E-4
1.16547000E+5	7.60000000E+1	7.69637440E+7	1.16547000E+5	1.36662678E-5	9.75384232E-6	3.66733207E-5	2.96834117E-5	8.97768426E-5	4.80090067E-4
1.18036000E+5	7.70000000E+1	7.69652330E+7	1.18036000E+5	1.37751894E-5	9.75083229E-6	3.66382285E-5	2.96298390E-5	8.97940892E-5	4.80182295E-4
1.19523000E+5	7.80000000E+1	7.69667200E+7	1.19523000E+5	1.37190925E-5	9.82477782E-6	3.64957466E-5	2.98980480E-5	8.99376649E-5	4.80950079E-4
1.21015000E+5	7.90000000E+1	7.69682120E+7	1.21015000E+5	1.37360470E-5	9.75366053E-6	3.65997775E-5	2.99031800E-5	8.99926651E-5	4.81244198E-4
1.22503000E+5	8.00000000E+1	7.69697000E+7	1.22503000E+5	1.35979162E-5	9.76953921E-6	3.65826114E-5	2.97731346E-5	8.97232014E-5	4.79803216E-4
1.23990000E+5	8.10000000E+1	7.69711870E+7	1.23990000E+5	1.37221621E-5	9.78799281E-6	3.66243615E-5	2.97695166E-5	8.99040329E-5	4.80770230E-4
1.25474000E+5	8.20000000E+1	7.69726710E+7	1.25474000E+5	1.37321131E-5	9.81563149E-6	3.66816058E-5	2.98664486E-5	9.00957990E-5	4.81795716E-4
1.26960000E+5	8.30000000E+1	7.69741570E+7	1.26960000E+5	1.36496739E-5	9.79561922E-6	3.62897410E-5	2.98488116E-5	8.95838457E-5	4.79057998E-4
1.28451000E+5	8.40000000E+1	7.69756480E+7	1.28451000E+5	1.37762772E-5	9.81977103E-6	3.66342946E-5	2.98592871E-5	9.00896299E-5	4.81762727E-4
1.29945000E+5	8.50000000E+1	7.69771420E+7	1.29945000E+5	1.38079093E-5	9.76475296E-6	3.66389020E-5	2.95985108E-5	8.98100751E-5	4.80267782E-4
1.31438000E+5	8.60000000E+1	7.69786350E+7	1.31438000E+5	1.36882292E-5	9.71340653E-6	3.63556637E-5	2.96958959E-5	8.94531953E-5	4.78359333E-4
1.32925000E+5	8.70000000E+1	7.69801220E+7	1.32925000E+5	1.35862873E-5	9.76267573E-6	3.66116687E-5	2.96973532E-5	8.96579849E-5	4.79454465E-4
1.34414000E+5	8.80000000E+1	7.69816110E+7	1.34414000E+5	1.36580036E-5	9.72336945E-6	3.66158469E-5	2.96620226E-5	8.96592426E-5	4.79461190E-4
1.35906000E+5	8.90000000E+1	7.69831030E+7	1.35906000E+5	1.37511598E-5	9.79969022E-6	3.66696938E-5	2.97538107E-5	8.99743545E-5	4.81146281E-4
1.37397000E+5	9.00000000E+1	7.69845940E+7	1.37397000E+5	1.36947231E-5	9.78918788E-6	3.66986885E-5	2.99679524E-5	9.01505518E-5	4.82088512E-4
1.38887000E+5	9.10000000E+1	7.69860840E+7	1.38887000E+5	1.36444525E-5	9.77851865E-6	3.68131711E-5	2.98728919E-5	9.01090342E-5	4.81866493E-4
1.40374000E+5	9.20000000E+1	7.69875710E+7	1.40374000E+5	1.37380527E-5	9.78713152E-6	3.66101070E-5	2.98605597E-5	8.99958509E-5	4.81261235E-4
1.41863000E+5	9.30000000E+1	7.69890600E+7	1.41863000E+5	1.36094527E-5	9.81319068E-6	3.65737184E-5	2.99014068E-5	8.98977685E-5	4.80736730E-4
1.43355000E+5	9.40000000E+1	7.69905520E+7	1.43355000E+5	1.38658719E-5	9.80627058E-6	3.66511120E-5	2.99343443E-5	9.02575988E-5	4.82660956E-4
1.44789000E+5	9.50000000E+1	7.69919860E+7	1.44789000E+5	1.37601690E-5	9.77921901E-6	3.65052535E-5	2.98334753E-5	8.98781168E-5	4.80631641E-4
1.46245000E+5	9.60000000E+1	7.69934420E+7	1.46245000E+5	1.36704461E-5	9.71512612E-6	3.64311381E-5	2.96453899E-5	8.94621002E-5	4.78406953E-4
1.47734000E+5	9.70000000E+1	7.69949310E+7	1.47734000E+5	1.37764291E-5	9.74591491E-6	3.66974010E-5	2.99482381E-5	9.01679832E-5	4.82181728E-4
1.49227000E+5	9.80000000E+1	7.69964240E+7	1.49227000E+5	1.37512790E-5	9.80567751E-6	3.67993190E-5	2.99131489E-5	9.02694244E-5	4.82724194E-4
1.50718000E+5	9.90000000E+1	7.69979150E+7	1.50718000E+5	1.36031793E-5	9.79436157E-6	3.66340502E-5	2.98580295E-5	8.98896205E-5	4.80693158E-4
