G:\BEAR_storage\User_Experiments\20220317_arneodo\file(1)_Region 3__0046.txt
Ring Energy (GeV): 2
Lifetime (hours): 16.715
Scan beginning: 3/18/2022	10:35:31 PM
Ring current (mA): 262.5
Source position: x (mm): -0.002 x' (mrad): 0.005 y (mm): 0.002 y' (mrad): -0.003
Scan end: 3/18/2022	10:49:19 PM
Ring current (mA): 25.96
Source position: x (mm): -0.168 x' (mrad): 0.222 y (mm): -0.112 y' (mrad): -0.041

SCAN TYPE: PHOTON ENERGY VS VAR_1 VS VAR_2

FILE INFO: FILE INFO:

SCAN PARAMETERS
waiting time (ms): 0
Number of scans: 1
Current scan number: 1
DARK OFF 
PREDARK OFF 

SCAN PARAMETERS
Regions configuration: 
number of regions: 7
Mirror grating scan: on
Timed acquisition: off
Region 1:
Initial energy (eV): 40.000000
Final energy (eV): 72.000000
Delta energy (eV): 1.000000
Deviation angle choice: Higher order rejection
Deviation angle (°): NaN
Al filter
G1200 channel
range keithley B 20 nA
range keithley C 2 uA
range keithley A 2 uA
Var_1: PsiC 0.000000
Var_2: PhiM0.000000
Bias CEM (V): 0.000000
Bias Keithley B (V): -30.000000
Name region: 
Region 2:
Initial energy (eV): 70.000000
Final energy (eV): 102.000000
Delta energy (eV): 1.000000
Deviation angle choice: Higher order rejection
Deviation angle (°): NaN
Si filter
G1200 channel
range keithley B 20 nA
range keithley C 20 uA
range keithley A 20 nA
Var_1: PsiC 0.000000
Var_2: PhiM0.000000
Bias CEM (V): 0.000000
Bias Keithley B (V): -30.000000
Name region: 
Region 3:
Initial energy (eV): 98.000000
Final energy (eV): 260.000000
Delta energy (eV): 1.000000
Deviation angle choice: Higher order rejection
Deviation angle (°): NaN
Full Beam
G1200 channel
range keithley B 20 nA
range keithley C 200 uA
range keithley A 200 nA
Var_1: PsiC 0.000000
Var_2: PhiM0.000000
Bias CEM (V): 0.000000
Bias Keithley B (V): -30.000000
Name region: 
Region 4:
Initial energy (eV): 255.000000
Final energy (eV): 320.000000
Delta energy (eV): 1.000000
Deviation angle choice: Higher order rejection
Deviation angle (°): NaN
filter Ag 0.6 um
G1200 channel
range keithley B 200 pA
range keithley C 2 uA
range keithley A 20 nA
Var_1: PsiC 0.000000
Var_2: PhiM0.000000
Bias CEM (V): 0.000000
Bias Keithley B (V): -30.000000
Name region: 
Region 5:
Initial energy (eV): 255.000000
Final energy (eV): 320.000000
Delta energy (eV): 1.000000
Deviation angle choice: Higher order rejection
Deviation angle (°): NaN
Full Beam
G1200 channel
range keithley B 200 pA
range keithley C 2 uA
range keithley A 20 nA
Var_1: PsiC 0.000000
Var_2: PhiM0.000000
Bias CEM (V): 0.000000
Bias Keithley B (V): -30.000000
Name region: 
Region 6:
Initial energy (eV): 315.000000
Final energy (eV): 1200.000000
Delta energy (eV): 5.000000
Deviation angle choice: Higher order rejection
Deviation angle (°): NaN
Full Beam
G1200 channel
range keithley B 20 nA
range keithley C 20 uA
range keithley A 200 nA
Var_1: PsiC 0.000000
Var_2: PhiM0.000000
Bias CEM (V): 0.000000
Bias Keithley B (V): -30.000000
Name region: 
Region 7:
Initial energy (eV): 1190.000000
Final energy (eV): 1500.000000
Delta energy (eV): 5.000000
Deviation angle choice: Higher order rejection
Deviation angle (°): NaN
filter Ag 0.6 um
G1200 channel
range keithley B 200 pA
range keithley C 2 uA
range keithley A 200 pA
Var_1: PsiC 0.000000
Var_2: PhiM0.000000
Bias CEM (V): 0.000000
Bias Keithley B (V): -30.000000
Name region: 

BEAR MONOCHROMATOR CONFIGURATION: 
Current Grating Position:     111372.40
Current Mirror Position: 251042.5
Current Grating: G1200
P2 phiz position:  0.0000
Mono axis position: 25.0000
Current Photon Energy (eV): 729.986
Current Deviation Angle: 172.600
Vertical Exit Slits (um): 450.000
Exit slit y axis position: 2.2375
Horizontal Exit Slits (um):  889.156
Exit slit z axis position: 1.9229
Mitutoyo position (mm): 

Dose on sample (mJ/cm^2): NaN

ENERGY CALIBRATION:
offset grating G1200: yes
Delta 0 order G1200:  -800.0
offset grating G1800: not
Delta 0 order G1800:  0.0
offset grating GNIM: not
Delta 0 order GNIM:  0.0
ZERO ORDER POSITIONS:
Grating G1200: Mirror position:  4938.0
Grating position: -105355.0
Grating G1800: 
Mirror position:  4938.0
Grating position: -106345.0
Grating GNIM: 
Mirror position:  10000.0
Grating position: 227300.0

Initial filter: Full Beam

EXPERIMENTAL CHAMBER CONFIGURATION: 
PsiC (deg):   -0.000186
Phi Analyzer (degrees): 89.992308
Theta Manipulator (degrees): -44.000040
Theta Analyzer (degrees): -135.001468
PhiM (degrees): -0.004103
XM (mm): 0.000713
YM (mm): 19.932987
ZM (mm): (Warning: for kinetic energy scans, 
this parameter is given in the scan settings) 
-6.601438
TiltM (°): 0.000138

ELECTRON ANALYZER CONFIGURATION: 
Current Kinetik energy (eV): 35.0
Mode: DE = COST
Pass Energy (eV):  50.000
CEM: ON
Bias Front-Back CEM (V): 3499.561
Bias Back-Collector CEM (V): 100.874
Bias Retard-Front CEM: 100.087COIL VALUES
Ix (amps):2.820
Iy (amps): 6.789
Iz (amps): 37.337

POLARIZATION SELECTOR CONFIGURATION:
Psi1 (rad): -0.001665535
Psi2 (rad): 0.001417093
Z min position (mm): 46.599650
DZ position (mm): 18.599100
Zmin 0 (mm): 66.500000
DZ0 (mm): 53.000000

BEAM SELECTOR CONFIGURATION:
Zmin position (mm): NaN
DZ position (mm): NaN
Y+ position (mm): NaN
Y- position (mm): NaN

CHANNEL ELECTRON MULTIPLIER CONFIGURATION:
CEM configured: OFF
Bias CEM: 0.000000

FLUORESCENCE DETECTOR CONFIGURATION:
Not configured

LUMINESCENCE MONOCHROMATOR CONFIGURATION:
Optical fiber position (mm): 0.000000
Optical fiber Switch inside: OFF
Optical fiber Switch outside: ON
Monochromator wavelength (A): 0.000000
Limit Switches: ON

I0 MONITOR PARAMETERS:
I0 detector position(mm): -0.000000E+0
Lower switch: OFF
Upper switch: OFF
Valve status:open

PRESSURE PARAMETERS:
Monitor chamber pressure (mbar): 8.903e-10
Experimental chamber pressure -ION GAUGE-(mbar): 0.000000E+0

XMCD PARAMETERS:
Xmcd OFF
Xmcd Direction -
Xmcd current (A): 0.000000

Gated scan off

Instrument 1: AMMETER KEITHLEY 6517A B
Measure type: Current
range type: set range value
range value (ampere):  200 pA
Integration time:  set NPLC value
NPLC value: 10.000
Digital filter count: 2
SAMPLE BIAS (V): -30.000
Vsource: ON
Output Voltage value: 30.000
Vsource range: 1000 V

Range Keithley B changed to 20 nA

Range Keithley B changed to 200 pA

Range Keithley B changed to 20 nA

Range Keithley B changed to 200 pA

Range Keithley B changed to 20 nA

Range Keithley B changed to 200 pA

Range Keithley B changed to 20 nA

Range Keithley B changed to 200 nA

Range Keithley B changed to 200 pA

Range Keithley B changed to 20 nA

Range Keithley B changed to 200 pA

Range Keithley B changed to 20 nA

Range Keithley B changed to 200 pA

Range Keithley B changed to 20 nA

Range Keithley B changed to 200 pA

Range Keithley B changed to 20 nA

Range Keithley B changed to 200 pA

Range Keithley B changed to 20 nA

Range Keithley B changed to 200 pA

Range Keithley B changed to 20 nA

Range Keithley B changed to 200 pA

Range Keithley B changed to 20 nA

Range Keithley B changed to 200 pA

Range Keithley B changed to 20 nA

Range Keithley B changed to 200 pA

Instrument 2: AMMETER KEITHLEY 6517A A
Measure type: Current
range type: set range value
range value (ampere):  200 nA
Integration time:  set NPLC value
NPLC value: 10.000
Digital filter count: 2
Vsource: OFF
Output Voltage value: -0.000
Vsource range: 100 V
Trigger source: bus

Range Keithley A changed to 20 nA

Range Keithley A changed to 200 nA

Range Keithley A changed to 200 pA

Range Keithley A changed to 20 nA

Range Keithley A changed to 200 pA

Range Keithley A changed to 20 nA

Range Keithley A changed to 200 nA

Range Keithley A changed to 200 pA

Range Keithley A changed to 20 nA

Range Keithley A changed to 200 pA

Range Keithley A changed to 20 nA

Range Keithley A changed to 200 nA

Range Keithley A changed to 200 pA

Range Keithley A changed to 20 nA

Range Keithley A changed to 200 pA

Range Keithley A changed to 20 nA

Range Keithley A changed to 200 pA

Range Keithley A changed to 20 nA

Range Keithley A changed to 200 pA

Range Keithley A changed to 20 nA

Range Keithley A changed to 200 pA

Range Keithley A changed to 20 nA

Range Keithley A changed to 200 nA

Range Keithley A changed to 200 pA

Range Keithley A changed to 20 nA

Range Keithley A changed to 200 pA

Range Keithley A changed to 20 nA

Range Keithley A changed to 200 nA

Range Keithley A changed to 200 pA

Range Keithley A changed to 20 nA

Range Keithley A changed to 200 nA

Range Keithley A changed to 200 pA

Range Keithley A changed to 20 nA

Range Keithley A changed to 200 pA

Range Keithley A changed to 20 nA

Range Keithley A changed to 200 pA

Range Keithley A changed to 20 nA

Range Keithley A changed to 200 nA

Range Keithley A changed to 200 pA

Range Keithley A changed to 20 nA

Range Keithley A changed to 200 pA

Range Keithley A changed to 20 nA

Range Keithley A changed to 200 nA

Range Keithley A changed to 20 nA

Range Keithley A changed to 200 nA

Range Keithley A changed to 200 pA

Range Keithley A changed to 20 nA

Range Keithley A changed to 200 nA

Range Keithley A changed to 2 uA

Range Keithley A changed to 20 nA

Range Keithley A changed to 200 nA

Range Keithley A changed to 2 uA

Range Keithley A changed to 20 nA

Range Keithley A changed to 200 nA

Range Keithley A changed to 200 pA

Range Keithley A changed to 2 uA

Range Keithley A changed to 20 nA

Range Keithley A changed to 200 nA

Range Keithley A changed to 200 pA

Range Keithley A changed to 20 nA

Range Keithley A changed to 2 uA

Range Keithley A changed to 20 nA

Range Keithley A changed to 200 nA

Range Keithley A changed to 20 nA

Instrument 3: AMMETER KEITHLEY 6517A C 
Measure type: Current
range type: set range value
range value (ampere):  2 uA
Integration time:  set NPLC value
NPLC value: 10.000
Digital filter count: 2
Vsource: OFF
Output Voltage value: -0.000
Vsource range: 100 V
Trigger source: bus


Range Keithley C changed to 20 uA


Range Keithley C changed to 2 uA


Range Keithley C changed to 200 uA


Range Keithley C changed to 2 uA


Range Keithley C changed to 20 uA


Range Keithley C changed to 200 uA


Range Keithley C changed to 2 uA


________________________________________________________________________________

RelativeTime (msec)	Photon Energy	Var_1	Var_2	INSTR_1_Sample with Bias _(ampere ) 	INSTR_2_Monitor IM_(ampere)  	INSTR_3_Diode A3_(ampere)	I_BPM_sum (Amps)	
________________________________________________________________________________

2.70337000E+5	9.80012384E+1	0.00000000E+0	0.00000000E+0	-4.60000000E-13	1.66196000E-8	9.64010000E-6	7.65295835E-5
2.74235000E+5	9.89986334E+1	0.00000000E+0	0.00000000E+0	-4.10000000E-13	1.72507000E-8	1.00695000E-5	7.63445200E-5
2.77441000E+5	1.00000181E+2	0.00000000E+0	0.00000000E+0	-2.40000000E-13	-6.20000000E-12	2.30000000E-9	-1.80002174E-6
2.80632000E+5	1.00999681E+2	0.00000000E+0	0.00000000E+0	-4.50000000E-13	-3.00000000E-13	2.20000000E-9	-1.84695147E-6
2.83846000E+5	1.02000088E+2	0.00000000E+0	0.00000000E+0	-7.00000000E-14	1.20000000E-12	2.10000000E-9	-1.83702431E-6
2.87080000E+5	1.03000229E+2	0.00000000E+0	0.00000000E+0	-1.20000000E-13	2.10000000E-12	2.10000000E-9	-1.81885681E-6
2.90250000E+5	1.03999714E+2	0.00000000E+0	0.00000000E+0	-8.00000000E-14	2.80000000E-12	2.00000000E-9	-1.83961115E-6
2.93448000E+5	1.04999664E+2	0.00000000E+0	0.00000000E+0	-1.00000000E-13	3.20000000E-12	2.00000000E-9	-1.82174466E-6
2.96636000E+5	1.05999763E+2	0.00000000E+0	0.00000000E+0	-4.60000000E-13	3.60000000E-12	2.00000000E-9	-1.84448979E-6
2.99776000E+5	1.06999691E+2	0.00000000E+0	0.00000000E+0	-1.80000000E-13	3.80000000E-12	2.00000000E-9	-1.86090492E-6
3.02896000E+5	1.07999814E+2	0.00000000E+0	0.00000000E+0	-3.30000000E-13	4.10000000E-12	2.00000000E-9	-1.85895286E-6
3.05941000E+5	1.08999375E+2	0.00000000E+0	0.00000000E+0	-3.60000000E-13	4.20000000E-12	2.00000000E-9	-1.85157977E-6
3.08964000E+5	1.09999725E+2	0.00000000E+0	0.00000000E+0	-2.60000000E-13	4.30000000E-12	2.00000000E-9	-1.84453152E-6
3.12165000E+5	1.11001123E+2	0.00000000E+0	0.00000000E+0	-3.40000000E-13	4.50000000E-12	2.00000000E-9	-1.87044762E-6
3.15151000E+5	1.11998917E+2	0.00000000E+0	0.00000000E+0	-1.30000000E-13	4.60000000E-12	2.00000000E-9	-1.84876941E-6
3.18177000E+5	1.12999966E+2	0.00000000E+0	0.00000000E+0	-2.80000000E-13	4.70000000E-12	2.00000000E-9	-1.86774753E-6
3.21206000E+5	1.14000372E+2	0.00000000E+0	0.00000000E+0	-3.90000000E-13	4.90000000E-12	2.00000000E-9	-1.88180827E-6
3.24218000E+5	1.14999102E+2	0.00000000E+0	0.00000000E+0	-4.30000000E-13	4.80000000E-12	2.00000000E-9	-1.85758792E-6
3.27386000E+5	1.16000901E+2	0.00000000E+0	0.00000000E+0	1.00000000E-13	5.00000000E-12	2.00000000E-9	-1.87022708E-6
3.30461000E+5	1.16999532E+2	0.00000000E+0	0.00000000E+0	-7.00000000E-14	5.10000000E-12	2.00000000E-9	-1.87954925E-6
3.33401000E+5	1.17999592E+2	0.00000000E+0	0.00000000E+0	-2.70000000E-13	5.20000000E-12	2.00000000E-9	-1.87526964E-6
3.36532000E+5	1.18999591E+2	0.00000000E+0	0.00000000E+0	-6.00000000E-14	5.20000000E-12	2.00000000E-9	-1.86069928E-6
3.39532000E+5	1.20000224E+2	0.00000000E+0	0.00000000E+0	-3.60000000E-13	5.30000000E-12	2.00000000E-9	-1.85590110E-6
3.42704000E+5	1.20999649E+2	0.00000000E+0	0.00000000E+0	-2.50000000E-13	5.30000000E-12	2.00000000E-9	-1.86311923E-6
3.45692000E+5	1.21999142E+2	0.00000000E+0	0.00000000E+0	-2.50000000E-13	5.40000000E-12	2.00000000E-9	-1.86225496E-6
3.48875000E+5	1.23000376E+2	0.00000000E+0	0.00000000E+0	-4.50000000E-13	5.40000000E-12	2.00000000E-9	-1.88387655E-6
3.51876000E+5	1.23999998E+2	0.00000000E+0	0.00000000E+0	-1.20000000E-13	5.50000000E-12	2.00000000E-9	-1.87667333E-6
3.54981000E+5	1.25000297E+2	0.00000000E+0	0.00000000E+0	-2.60000000E-13	5.30000000E-12	2.00000000E-9	-1.89888500E-6
3.58014000E+5	1.25999343E+2	0.00000000E+0	0.00000000E+0	-3.00000000E-14	5.50000000E-12	2.00000000E-9	-1.90499150E-6
3.61261000E+5	1.26999549E+2	0.00000000E+0	0.00000000E+0	-2.20000000E-13	5.50000000E-12	2.00000000E-9	-1.87627696E-6
3.64209000E+5	1.27997679E+2	0.00000000E+0	0.00000000E+0	-3.90000000E-13	5.50000000E-12	2.00000000E-9	-1.87534712E-6
3.67081000E+5	1.29001457E+2	0.00000000E+0	0.00000000E+0	-1.60000000E-13	5.70000000E-12	2.00000000E-9	-1.89192616E-6
3.70079000E+5	1.29999785E+2	0.00000000E+0	0.00000000E+0	-2.00000000E-13	5.70000000E-12	2.00000000E-9	-1.88347124E-6
3.72980000E+5	1.30999820E+2	0.00000000E+0	0.00000000E+0	-3.70000000E-13	5.60000000E-12	2.00000000E-9	-1.89204239E-6
3.75927000E+5	1.32000938E+2	0.00000000E+0	0.00000000E+0	-3.90000000E-13	5.70000000E-12	2.00000000E-9	-1.87802635E-6
3.79481000E+5	1.32998998E+2	0.00000000E+0	0.00000000E+0	-1.10000000E-13	5.70000000E-12	2.00000000E-9	-1.91796743E-6
3.82491000E+5	1.33999527E+2	0.00000000E+0	0.00000000E+0	-1.20000000E-13	5.70000000E-12	1.90000000E-9	-1.88125692E-6
3.85511000E+5	1.35000138E+2	0.00000000E+0	0.00000000E+0	3.00000000E-14	5.80000000E-12	2.00000000E-9	-1.86547063E-6
3.88328000E+5	1.36000496E+2	0.00000000E+0	0.00000000E+0	-2.70000000E-13	5.70000000E-12	2.00000000E-9	-1.87784456E-6
3.91220000E+5	1.36998775E+2	0.00000000E+0	0.00000000E+0	-2.30000000E-13	5.80000000E-12	2.00000000E-9	-1.88343547E-6
3.94177000E+5	1.38000559E+2	0.00000000E+0	0.00000000E+0	-2.80000000E-13	5.80000000E-12	2.00000000E-9	-1.88353680E-6
3.97095000E+5	1.38999966E+2	0.00000000E+0	0.00000000E+0	-4.90000000E-13	5.80000000E-12	2.00000000E-9	-1.87227450E-6
4.00030000E+5	1.39999276E+2	0.00000000E+0	0.00000000E+0	-7.00000000E-14	5.70000000E-12	2.00000000E-9	-1.88744091E-6
4.03045000E+5	1.41000130E+2	0.00000000E+0	0.00000000E+0	-3.00000000E-13	5.80000000E-12	2.00000000E-9	-1.89068042E-6
4.05974000E+5	1.41999502E+2	0.00000000E+0	0.00000000E+0	-3.00000000E-14	5.60000000E-12	1.90000000E-9	-1.87904857E-6
4.09004000E+5	1.43000246E+2	0.00000000E+0	0.00000000E+0	-9.00000000E-14	5.90000000E-12	2.00000000E-9	-1.89930521E-6
4.12129000E+5	1.44000075E+2	0.00000000E+0	0.00000000E+0	-4.60000000E-13	5.80000000E-12	2.00000000E-9	-1.86458550E-6
4.15013000E+5	1.45000310E+2	0.00000000E+0	0.00000000E+0	1.00000000E-14	5.80000000E-12	2.00000000E-9	-1.91251956E-6
4.17892000E+5	1.46000268E+2	0.00000000E+0	0.00000000E+0	-3.30000000E-13	5.90000000E-12	2.00000000E-9	-1.90620743E-6
4.20879000E+5	1.46998757E+2	0.00000000E+0	0.00000000E+0	-3.10000000E-13	5.90000000E-12	2.00000000E-9	-1.90894030E-6
4.23825000E+5	1.48000650E+2	0.00000000E+0	0.00000000E+0	-4.50000000E-13	5.90000000E-12	2.00000000E-9	-1.92668461E-6
4.26607000E+5	1.49000106E+2	0.00000000E+0	0.00000000E+0	-4.00000000E-13	5.90000000E-12	2.00000000E-9	-1.90120660E-6
4.29427000E+5	1.49998963E+2	0.00000000E+0	0.00000000E+0	-5.40000000E-13	5.90000000E-12	2.00000000E-9	-1.92292356E-6
4.33008000E+5	1.50974282E+2	0.00000000E+0	0.00000000E+0	-4.60000000E-13	5.80000000E-12	2.00000000E-9	-1.88409411E-6
4.36591000E+5	1.52017939E+2	0.00000000E+0	0.00000000E+0	1.10000000E-13	5.80000000E-12	2.00000000E-9	-1.90391861E-6
4.40327000E+5	1.53005200E+2	0.00000000E+0	0.00000000E+0	-2.80000000E-13	5.90000000E-12	2.00000000E-9	-1.91663825E-6
4.43891000E+5	1.54003148E+2	0.00000000E+0	0.00000000E+0	-2.60000000E-13	5.90000000E-12	2.00000000E-9	-1.90958105E-6
4.47496000E+5	1.55000437E+2	0.00000000E+0	0.00000000E+0	-5.00000000E-13	5.90000000E-12	2.00000000E-9	-1.88263975E-6
4.51030000E+5	1.55999722E+2	0.00000000E+0	0.00000000E+0	-5.30000000E-13	5.90000000E-12	1.90000000E-9	-1.91709720E-6
4.54529000E+5	1.56996515E+2	0.00000000E+0	0.00000000E+0	-7.00000000E-14	5.90000000E-12	2.00000000E-9	-1.90117978E-6
4.58094000E+5	1.57998506E+2	0.00000000E+0	0.00000000E+0	-1.30000000E-13	5.90000000E-12	2.10000000E-9	-1.91931747E-6
4.61675000E+5	1.59000004E+2	0.00000000E+0	0.00000000E+0	-1.40000000E-13	5.90000000E-12	2.00000000E-9	-1.90561138E-6
4.65234000E+5	1.59993575E+2	0.00000000E+0	0.00000000E+0	-2.80000000E-13	5.90000000E-12	2.00000000E-9	-1.88933633E-6
4.68756000E+5	1.60993562E+2	0.00000000E+0	0.00000000E+0	-1.20000000E-13	5.90000000E-12	2.00000000E-9	-1.91015922E-6
4.72388000E+5	1.62002289E+2	0.00000000E+0	0.00000000E+0	-3.60000000E-13	6.00000000E-12	2.00000000E-9	-1.90190398E-6
4.76004000E+5	1.63003484E+2	0.00000000E+0	0.00000000E+0	-3.20000000E-13	6.00000000E-12	2.00000000E-9	-1.88416861E-6
4.79538000E+5	1.64006339E+2	0.00000000E+0	0.00000000E+0	6.00000000E-14	6.00000000E-12	2.00000000E-9	-1.90131091E-6
4.83235000E+5	1.65002919E+2	0.00000000E+0	0.00000000E+0	-3.40000000E-13	6.00000000E-12	2.00000000E-9	-1.90494679E-6
4.86803000E+5	1.66000243E+2	0.00000000E+0	0.00000000E+0	-4.10000000E-13	6.00000000E-12	2.00000000E-9	-1.90727733E-6
4.90371000E+5	1.67001082E+2	0.00000000E+0	0.00000000E+0	-2.60000000E-13	6.10000000E-12	2.00000000E-9	-1.90579616E-6
4.93951000E+5	1.67998010E+2	0.00000000E+0	0.00000000E+0	-8.00000000E-14	6.00000000E-12	2.00000000E-9	-1.89461731E-6
4.97499000E+5	1.68998982E+2	0.00000000E+0	0.00000000E+0	-4.50000000E-13	6.00000000E-12	2.00000000E-9	-1.90887474E-6
5.01039000E+5	1.69996078E+2	0.00000000E+0	0.00000000E+0	-7.60000000E-13	6.00000000E-12	2.00000000E-9	-1.91804790E-6
5.04593000E+5	1.70994540E+2	0.00000000E+0	0.00000000E+0	-3.30000000E-13	6.00000000E-12	2.00000000E-9	-1.89580344E-6
5.08109000E+5	1.71995238E+2	0.00000000E+0	0.00000000E+0	-4.70000000E-13	6.00000000E-12	2.00000000E-9	-1.91373550E-6
5.11661000E+5	1.73006263E+2	0.00000000E+0	0.00000000E+0	-5.60000000E-13	6.00000000E-12	2.00000000E-9	-1.91221558E-6
5.15233000E+5	1.74006054E+2	0.00000000E+0	0.00000000E+0	-3.40000000E-13	6.00000000E-12	2.00000000E-9	-1.92156457E-6
5.18738000E+5	1.75001196E+2	0.00000000E+0	0.00000000E+0	-2.30000000E-13	6.00000000E-12	2.00000000E-9	-1.93648361E-6
5.22271000E+5	1.76002223E+2	0.00000000E+0	0.00000000E+0	-1.60000000E-13	6.00000000E-12	2.00000000E-9	-1.90503024E-6
5.25786000E+5	1.77001242E+2	0.00000000E+0	0.00000000E+0	-4.00000000E-13	6.10000000E-12	2.00000000E-9	-1.91707634E-6
5.29302000E+5	1.77996071E+2	0.00000000E+0	0.00000000E+0	-2.80000000E-13	5.90000000E-12	2.00000000E-9	-1.90888964E-6
5.32816000E+5	1.78999118E+2	0.00000000E+0	0.00000000E+0	-1.00000000E-13	6.10000000E-12	2.00000000E-9	-1.92820751E-6
5.36379000E+5	1.79998633E+2	0.00000000E+0	0.00000000E+0	-7.00000000E-14	5.90000000E-12	2.00000000E-9	-1.90413319E-6
5.39942000E+5	1.80994569E+2	0.00000000E+0	0.00000000E+0	-3.60000000E-13	6.10000000E-12	2.00000000E-9	-1.91916548E-6
5.43471000E+5	1.81994221E+2	0.00000000E+0	0.00000000E+0	-2.00000000E-14	6.00000000E-12	2.00000000E-9	-1.90667235E-6
5.47716000E+5	1.83000445E+2	0.00000000E+0	0.00000000E+0	-2.10000000E-13	6.00000000E-12	2.10000000E-9	-1.93059765E-6
5.51300000E+5	1.84007630E+2	0.00000000E+0	0.00000000E+0	-2.40000000E-13	6.00000000E-12	2.00000000E-9	-1.91530906E-6
5.54804000E+5	1.85003027E+2	0.00000000E+0	0.00000000E+0	-2.00000000E-13	6.00000000E-12	2.10000000E-9	-1.91717469E-6
5.58339000E+5	1.86001960E+2	0.00000000E+0	0.00000000E+0	-7.00000000E-14	6.10000000E-12	2.00000000E-9	-1.91655480E-6
5.61942000E+5	1.87003060E+2	0.00000000E+0	0.00000000E+0	-3.90000000E-13	6.10000000E-12	2.10000000E-9	-1.94033705E-6
5.65471000E+5	1.88000153E+2	0.00000000E+0	0.00000000E+0	1.90000000E-13	6.10000000E-12	2.00000000E-9	-1.92099535E-6
5.68960000E+5	1.88994432E+2	0.00000000E+0	0.00000000E+0	-2.30000000E-13	6.00000000E-12	2.00000000E-9	-1.91482030E-6
5.72486000E+5	1.89999007E+2	0.00000000E+0	0.00000000E+0	-1.80000000E-13	6.00000000E-12	2.00000000E-9	-1.90605246E-6
5.76002000E+5	1.90998819E+2	0.00000000E+0	0.00000000E+0	-3.60000000E-13	6.10000000E-12	2.00000000E-9	-1.92725085E-6
5.79572000E+5	1.91994799E+2	0.00000000E+0	0.00000000E+0	-9.00000000E-14	5.90000000E-12	2.00000000E-9	-1.91591107E-6
5.83186000E+5	1.92995129E+2	0.00000000E+0	0.00000000E+0	-1.40000000E-13	6.00000000E-12	2.00000000E-9	-1.91921615E-6
5.86682000E+5	1.94005068E+2	0.00000000E+0	0.00000000E+0	-7.00000000E-14	6.10000000E-12	2.00000000E-9	-1.93191194E-6
5.90219000E+5	1.95003002E+2	0.00000000E+0	0.00000000E+0	-7.00000000E-14	6.00000000E-12	2.00000000E-9	-1.92175828E-6
5.93824000E+5	1.96003625E+2	0.00000000E+0	0.00000000E+0	-3.20000000E-13	6.00000000E-12	2.00000000E-9	-1.90308415E-6
5.97320000E+5	1.97005179E+2	0.00000000E+0	0.00000000E+0	-2.60000000E-13	6.10000000E-12	2.00000000E-9	-1.94774889E-6
6.00831000E+5	1.98000374E+2	0.00000000E+0	0.00000000E+0	-1.50000000E-13	6.10000000E-12	2.00000000E-9	-1.93212651E-6
6.04350000E+5	1.98997777E+2	0.00000000E+0	0.00000000E+0	-7.00000000E-14	6.10000000E-12	2.10000000E-9	-1.92171656E-6
6.07903000E+5	1.99995263E+2	0.00000000E+0	0.00000000E+0	-7.00000000E-14	6.10000000E-12	2.00000000E-9	-1.94753134E-6
6.11481000E+5	2.00997260E+2	0.00000000E+0	0.00000000E+0	-9.00000000E-14	6.00000000E-12	2.00000000E-9	-1.95103907E-6
6.15027000E+5	2.01996808E+2	0.00000000E+0	0.00000000E+0	-7.00000000E-14	6.10000000E-12	2.00000000E-9	-1.95163512E-6
6.18621000E+5	2.02994160E+2	0.00000000E+0	0.00000000E+0	-9.00000000E-14	6.10000000E-12	2.00000000E-9	-1.92904197E-6
6.22186000E+5	2.04002384E+2	0.00000000E+0	0.00000000E+0	-8.00000000E-14	6.10000000E-12	2.00000000E-9	-1.93895423E-6
6.25806000E+5	2.05008756E+2	0.00000000E+0	0.00000000E+0	-5.00000000E-14	6.10000000E-12	2.00000000E-9	-1.94354080E-6
6.29338000E+5	2.06003067E+2	0.00000000E+0	0.00000000E+0	6.00000000E-14	6.10000000E-12	2.00000000E-9	-1.92790948E-6
6.32818000E+5	2.07004817E+2	0.00000000E+0	0.00000000E+0	-2.90000000E-13	6.10000000E-12	2.00000000E-9	-1.93323218E-6
6.36394000E+5	2.08002921E+2	0.00000000E+0	0.00000000E+0	-5.00000000E-13	6.10000000E-12	2.00000000E-9	-1.92168080E-6
6.39936000E+5	2.08992824E+2	0.00000000E+0	0.00000000E+0	-1.30000000E-13	6.10000000E-12	2.00000000E-9	-1.93161391E-6
6.43423000E+5	2.10001909E+2	0.00000000E+0	0.00000000E+0	-1.40000000E-13	6.10000000E-12	2.00000000E-9	-1.92233347E-6
6.46999000E+5	2.10995764E+2	0.00000000E+0	0.00000000E+0	-4.60000000E-13	6.10000000E-12	2.00000000E-9	-1.92495905E-6
6.50539000E+5	2.11997130E+2	0.00000000E+0	0.00000000E+0	-2.30000000E-13	6.10000000E-12	2.00000000E-9	-1.93342888E-6
6.54051000E+5	2.12995087E+2	0.00000000E+0	0.00000000E+0	-3.00000000E-14	6.10000000E-12	2.00000000E-9	-1.93336927E-6
6.57578000E+5	2.13995492E+2	0.00000000E+0	0.00000000E+0	-9.00000000E-14	6.10000000E-12	2.00000000E-9	-1.91223942E-6
6.61064000E+5	2.15008500E+2	0.00000000E+0	0.00000000E+0	-2.00000000E-13	6.00000000E-12	2.00000000E-9	-1.92782902E-6
6.64634000E+5	2.16007023E+2	0.00000000E+0	0.00000000E+0	-2.10000000E-13	6.10000000E-12	2.00000000E-9	-1.94358849E-6
6.68162000E+5	2.17000153E+2	0.00000000E+0	0.00000000E+0	3.00000000E-14	6.10000000E-12	2.00000000E-9	-1.93290733E-6
6.71698000E+5	2.18001783E+2	0.00000000E+0	0.00000000E+0	1.00000000E-14	6.10000000E-12	2.00000000E-9	-1.94664025E-6
6.75235000E+5	2.18999407E+2	0.00000000E+0	0.00000000E+0	-1.00000000E-13	6.20000000E-12	2.00000000E-9	-1.93666541E-6
6.78787000E+5	2.19996578E+2	0.00000000E+0	0.00000000E+0	-5.40000000E-13	6.00000000E-12	2.00000000E-9	-1.91200696E-6
6.82294000E+5	2.20997352E+2	0.00000000E+0	0.00000000E+0	-3.10000000E-13	6.00000000E-12	2.00000000E-9	-1.94797837E-6
6.85823000E+5	2.21996192E+2	0.00000000E+0	0.00000000E+0	-3.00000000E-13	6.00000000E-12	1.90000000E-9	-1.95692801E-6
6.89349000E+5	2.22996428E+2	0.00000000E+0	0.00000000E+0	-4.00000000E-13	6.10000000E-12	2.00000000E-9	-1.92708694E-6
6.92972000E+5	2.23992111E+2	0.00000000E+0	0.00000000E+0	-3.30000000E-13	6.10000000E-12	1.90000000E-9	-1.94706046E-6
6.96541000E+5	2.25005101E+2	0.00000000E+0	0.00000000E+0	-3.40000000E-13	6.00000000E-12	2.00000000E-9	-1.94954299E-6
7.00059000E+5	2.26002362E+2	0.00000000E+0	0.00000000E+0	-3.70000000E-13	6.10000000E-12	2.00000000E-9	-1.92792439E-6
7.03559000E+5	2.27006741E+2	0.00000000E+0	0.00000000E+0	-3.90000000E-13	6.10000000E-12	2.00000000E-9	-1.91709124E-6
7.07123000E+5	2.28006726E+2	0.00000000E+0	0.00000000E+0	-4.10000000E-13	6.10000000E-12	2.00000000E-9	-1.95496702E-6
7.10856000E+5	2.28996777E+2	0.00000000E+0	0.00000000E+0	-1.10000000E-13	6.00000000E-12	2.00000000E-9	-1.94800817E-6
7.14430000E+5	2.29995410E+2	0.00000000E+0	0.00000000E+0	-1.80000000E-13	6.10000000E-12	2.00000000E-9	-1.92947113E-6
7.18048000E+5	2.30998663E+2	0.00000000E+0	0.00000000E+0	-5.10000000E-13	6.10000000E-12	2.00000000E-9	-1.91872739E-6
7.21774000E+5	2.31999202E+2	0.00000000E+0	0.00000000E+0	-4.30000000E-13	6.00000000E-12	2.00000000E-9	-1.92140662E-6
7.26337000E+5	2.32994640E+2	0.00000000E+0	0.00000000E+0	-3.40000000E-13	6.00000000E-12	2.00000000E-9	-1.91470407E-6
7.29877000E+5	2.33994620E+2	0.00000000E+0	0.00000000E+0	-4.80000000E-13	6.10000000E-12	2.00000000E-9	-1.91388153E-6
7.33427000E+5	2.35000438E+2	0.00000000E+0	0.00000000E+0	-1.70000000E-13	6.20000000E-12	2.00000000E-9	-1.94958472E-6
7.36990000E+5	2.36006100E+2	0.00000000E+0	0.00000000E+0	-4.10000000E-13	6.10000000E-12	2.00000000E-9	-1.95108079E-6
7.40657000E+5	2.37005734E+2	0.00000000E+0	0.00000000E+0	-2.30000000E-13	6.00000000E-12	2.00000000E-9	-1.94162452E-6
7.44290000E+5	2.38008951E+2	0.00000000E+0	0.00000000E+0	-4.00000000E-14	6.10000000E-12	2.00000000E-9	-1.90886878E-6
7.47827000E+5	2.38996958E+2	0.00000000E+0	0.00000000E+0	-1.70000000E-13	6.10000000E-12	2.00000000E-9	-1.92172848E-6
7.51541000E+5	2.39998507E+2	0.00000000E+0	0.00000000E+0	-2.70000000E-13	6.10000000E-12	2.00000000E-9	-1.94802009E-6
7.55060000E+5	2.41000743E+2	0.00000000E+0	0.00000000E+0	-1.50000000E-13	6.10000000E-12	1.90000000E-9	-1.91238843E-6
7.58658000E+5	2.41992626E+2	0.00000000E+0	0.00000000E+0	-1.90000000E-13	6.10000000E-12	2.00000000E-9	-1.93588757E-6
7.62227000E+5	2.42998653E+2	0.00000000E+0	0.00000000E+0	-3.50000000E-13	6.10000000E-12	2.00000000E-9	-1.91530012E-6
7.65868000E+5	2.43992980E+2	0.00000000E+0	0.00000000E+0	-4.60000000E-13	6.10000000E-12	2.00000000E-9	-1.94577598E-6
7.69452000E+5	2.44998376E+2	0.00000000E+0	0.00000000E+0	-3.50000000E-13	6.10000000E-12	2.10000000E-9	-1.93907344E-6
7.73204000E+5	2.46005769E+2	0.00000000E+0	0.00000000E+0	-1.10000000E-13	6.00000000E-12	2.00000000E-9	-1.93063342E-6
7.76906000E+5	2.47003169E+2	0.00000000E+0	0.00000000E+0	-4.50000000E-13	6.10000000E-12	2.00000000E-9	-1.92537331E-6
7.80707000E+5	2.48006055E+2	0.00000000E+0	0.00000000E+0	-2.60000000E-13	6.10000000E-12	2.00000000E-9	-1.92737006E-6
7.84236000E+5	2.48997972E+2	0.00000000E+0	0.00000000E+0	-2.70000000E-13	6.10000000E-12	2.00000000E-9	-1.92872905E-6
7.87792000E+5	2.49999994E+2	0.00000000E+0	0.00000000E+0	-1.00000000E-14	6.00000000E-12	2.00000000E-9	-1.93468653E-6
7.90778000E+5	2.50997643E+2	0.00000000E+0	0.00000000E+0	-8.00000000E-14	6.10000000E-12	2.00000000E-9	-1.93716311E-6
7.93772000E+5	2.51995784E+2	0.00000000E+0	0.00000000E+0	-3.70000000E-13	6.00000000E-12	1.90000000E-9	-1.91632830E-6
7.96755000E+5	2.52999280E+2	0.00000000E+0	0.00000000E+0	-5.00000000E-13	6.10000000E-12	2.00000000E-9	-1.92849659E-6
7.99790000E+5	2.54000224E+2	0.00000000E+0	0.00000000E+0	-4.10000000E-13	6.00000000E-12	2.00000000E-9	-1.92428254E-6
8.02784000E+5	2.54999604E+2	0.00000000E+0	0.00000000E+0	-3.10000000E-13	6.10000000E-12	2.00000000E-9	-1.94100463E-6
8.05839000E+5	2.55999997E+2	0.00000000E+0	0.00000000E+0	-2.00000000E-13	6.20000000E-12	2.00000000E-9	-1.96735286E-6
8.08844000E+5	2.57000791E+2	0.00000000E+0	0.00000000E+0	-1.20000000E-13	6.10000000E-12	2.00000000E-9	-1.93203711E-6
8.11874000E+5	2.57997052E+2	0.00000000E+0	0.00000000E+0	-2.50000000E-13	6.00000000E-12	2.10000000E-9	-1.91562795E-6
8.14889000E+5	2.59000254E+2	0.00000000E+0	0.00000000E+0	-4.60000000E-13	6.00000000E-12	2.00000000E-9	-1.94259309E-6
8.17870000E+5	2.59999674E+2	0.00000000E+0	0.00000000E+0	-3.30000000E-13	6.10000000E-12	2.10000000E-9	-1.92554020E-6
