G:\BEAR_storage\User_Experiments\20220317_arneodo\file(1)_Region 5__0078.txt
Ring Energy (GeV): 2
Lifetime (hours): 15.3861
Scan beginning: 3/21/2022	3:16:07 PM
Ring current (mA): 308.8
Source position: x (mm): 0.006 x' (mrad): 0.001 y (mm): 0.001 y' (mrad): 0.002
Scan end: 3/21/2022	3:52:00 PM
Ring current (mA): 308.91
Source position: x (mm): 0.006 x' (mrad): 0 y (mm): 0 y' (mrad): 0.002

SCAN TYPE: PHOTON ENERGY VS VAR_1 VS VAR_2

FILE INFO: FILE INFO:

SCAN PARAMETERS
waiting time (ms): 0
Number of scans: 1
Current scan number: 1
DARK OFF 
PREDARK OFF 

SCAN PARAMETERS
Regions configuration: 
number of regions: 6
Mirror grating scan: on
Timed acquisition: off
Region 1:
Initial energy (eV): 40.000000
Final energy (eV): 72.000000
Delta energy (eV): 1.000000
Deviation angle choice: Higher order rejection
Deviation angle (°): NaN
Al filter
G1200 channel
range keithley B 20 nA
range keithley C 200 nA
range keithley A 20 nA
Var_1: PsiC 0.000000
Var_2: PhiM0.000000
Bias CEM (V): 0.000000
Bias Keithley B (V): -30.000000
Name region: 
Region 2:
Initial energy (eV): 70.000000
Final energy (eV): 102.000000
Delta energy (eV): 1.000000
Deviation angle choice: Higher order rejection
Deviation angle (°): NaN
Si filter
G1200 channel
range keithley B 20 nA
range keithley C 200 nA
range keithley A 20 nA
Var_1: PsiC 0.000000
Var_2: PhiM0.000000
Bias CEM (V): 0.000000
Bias Keithley B (V): -30.000000
Name region: 
Region 3:
Initial energy (eV): 98.000000
Final energy (eV): 260.000000
Delta energy (eV): 1.000000
Deviation angle choice: Higher order rejection
Deviation angle (°): NaN
Full Beam
G1200 channel
range keithley B 20 nA
range keithley C 200 nA
range keithley A 200 nA
Var_1: PsiC 0.000000
Var_2: PhiM0.000000
Bias CEM (V): 0.000000
Bias Keithley B (V): -30.000000
Name region: 
Region 4:
Initial energy (eV): 255.000000
Final energy (eV): 320.000000
Delta energy (eV): 1.000000
Deviation angle choice: Higher order rejection
Deviation angle (°): NaN
filter Ag 0.6 um
G1200 channel
range keithley B 200 pA
range keithley C 200 nA
range keithley A 200 pA
Var_1: PsiC 0.000000
Var_2: PhiM0.000000
Bias CEM (V): 0.000000
Bias Keithley B (V): -30.000000
Name region: 
Region 5:
Initial energy (eV): 315.000000
Final energy (eV): 1200.000000
Delta energy (eV): 5.000000
Deviation angle choice: Higher order rejection
Deviation angle (°): NaN
Full Beam
G1200 channel
range keithley B 20 nA
range keithley C 200 nA
range keithley A 20 nA
Var_1: PsiC 0.000000
Var_2: PhiM0.000000
Bias CEM (V): 0.000000
Bias Keithley B (V): -30.000000
Name region: 
Region 6:
Initial energy (eV): 1190.000000
Final energy (eV): 1500.000000
Delta energy (eV): 5.000000
Deviation angle choice: Higher order rejection
Deviation angle (°): NaN
filter Ag 0.6 um
G1200 channel
range keithley B 200 pA
range keithley C 200 nA
range keithley A 200 pA
Var_1: PsiC 0.000000
Var_2: PhiM0.000000
Bias CEM (V): 0.000000
Bias Keithley B (V): -30.000000
Name region: 

BEAR MONOCHROMATOR CONFIGURATION: 
Current Grating Position:     -178681.70
Current Mirror Position: 2557.1
Current Grating: G1200
P2 phiz position:  0.0000
Mono axis position: 25.0000
Current Photon Energy (eV): 73.040
Current Deviation Angle: 155.000
Vertical Exit Slits (um): 100.000
Exit slit y axis position: 1.3625
Horizontal Exit Slits (um):  889.156
Exit slit z axis position: 1.9229
Mitutoyo position (mm): 

Dose on sample (mJ/cm^2): NaN

ENERGY CALIBRATION:
offset grating G1200: yes
Delta 0 order G1200:  -1100.0
offset grating G1800: not
Delta 0 order G1800:  0.0
offset grating GNIM: not
Delta 0 order GNIM:  0.0
ZERO ORDER POSITIONS:
Grating G1200: Mirror position:  4938.0
Grating position: -105355.0
Grating G1800: 
Mirror position:  4938.0
Grating position: -106345.0
Grating GNIM: 
Mirror position:  10000.0
Grating position: 227300.0

Initial filter: Si filter

EXPERIMENTAL CHAMBER CONFIGURATION: 
PsiC (deg):   -0.000186
Phi Analyzer (degrees): 89.993255
Theta Manipulator (degrees): -44.000040
Theta Analyzer (degrees): -135.001468
PhiM (degrees): -0.003077
XM (mm): 2.500913
YM (mm): 9.947225
ZM (mm): (Warning: for kinetic energy scans, 
this parameter is given in the scan settings) 
-15.001400
TiltM (°): 0.000138

ELECTRON ANALYZER CONFIGURATION: 
Current Kinetik energy (eV): 35.0
Mode: DE = COST
Pass Energy (eV):  100.000
CEM: ON
Bias Front-Back CEM (V): 3499.698
Bias Back-Collector CEM (V): 100.874
Bias Retard-Front CEM: 100.104COIL VALUES
Ix (amps):2.820
Iy (amps): 6.789
Iz (amps): 37.403

POLARIZATION SELECTOR CONFIGURATION:
Psi1 (rad): -0.001665535
Psi2 (rad): 0.001417093
Z min position (mm): 46.599650
DZ position (mm): 18.599100
Zmin 0 (mm): 65.700000
DZ0 (mm): 54.000000

BEAM SELECTOR CONFIGURATION:
Zmin position (mm): NaN
DZ position (mm): NaN
Y+ position (mm): NaN
Y- position (mm): NaN

CHANNEL ELECTRON MULTIPLIER CONFIGURATION:
CEM configured: OFF
Bias CEM: 0.000000

FLUORESCENCE DETECTOR CONFIGURATION:
Not configured

LUMINESCENCE MONOCHROMATOR CONFIGURATION:
Optical fiber position (mm): 0.000000
Optical fiber Switch inside: ON
Optical fiber Switch outside: ON
Monochromator wavelength (A): 0.000000
Limit Switches: ON

I0 MONITOR PARAMETERS:
I0 detector position(mm): NaN
Lower switch: OFF
Upper switch: OFF
Valve status:unread

PRESSURE PARAMETERS:
Monitor chamber pressure (mbar): 9.646e-10
Experimental chamber pressure -ION GAUGE-(mbar): 0.000000E+0

XMCD PARAMETERS:
Xmcd OFF
Xmcd Direction -
Xmcd current (A): 0.000000

Gated scan off

Instrument 1: AMMETER KEITHLEY 6517A B
Measure type: Current
range type: set range value
range value (ampere):  200 pA
Integration time:  set NPLC value
NPLC value: 10.000
Digital filter count: 2
SAMPLE BIAS (V): -30.000
Vsource: ON
Output Voltage value: 30.000
Vsource range: 1000 V

Range Keithley B changed to 20 nA

Range Keithley B changed to 200 pA

Range Keithley B changed to 20 nA

Range Keithley B changed to 200 pA

Keithley B Bias (V) changed to: 0.000000

Range Keithley B changed to 20 nA

Keithley B Bias (V) changed to: -30.000000

Range Keithley B changed to 200 pA

Range Keithley B changed to 20 nA

Range Keithley B changed to 200 pA

Instrument 2: AMMETER KEITHLEY 6517A A
Measure type: Current
range type: set range value
range value (ampere):  200 pA
Integration time:  set NPLC value
NPLC value: 10.000
Digital filter count: 2
Vsource: OFF
Output Voltage value: -0.000
Vsource range: 100 V
Trigger source: bus

Range Keithley A changed to 20 nA

Range Keithley A changed to 200 nA

Range Keithley A changed to 200 pA

Range Keithley A changed to 20 nA

Range Keithley A changed to 200 pA

Range Keithley A changed to 20 nA

Range Keithley A changed to 200 nA

Range Keithley A changed to 200 pA

Range Keithley A changed to 20 nA

Range Keithley A changed to 200 pA

Instrument 3: COUNTER ORTEC 996Integration time (sec): 1.000


Range Keithley C changed to 200 nA


Range Keithley C changed to 2 uA


Range Keithley C changed to 200 nA


________________________________________________________________________________

RelativeTime (msec)	Photon Energy	Var_1	Var_2	INSTR_1_Sample with Bias _(ampere ) 	INSTR_2_Monitor IM_(ampere)  	INSTR_3_Ortec 996 counts_(counts)	I_BPM_sum (Amps)	
________________________________________________________________________________

1.36164000E+6	3.14988647E+2	0.00000000E+0	0.00000000E+0	3.18000000E-12	1.43971000E-9	4.30000000E+1	8.89933960E-5
1.36750300E+6	3.20019015E+2	0.00000000E+0	0.00000000E+0	3.06000000E-12	1.50671000E-9	3.30000000E+1	8.90598195E-5
1.37226700E+6	3.24996586E+2	0.00000000E+0	0.00000000E+0	2.70000000E-12	1.49938000E-9	3.90000000E+1	8.91974436E-5
1.37696700E+6	3.29992897E+2	0.00000000E+0	0.00000000E+0	2.54000000E-12	1.48067000E-9	3.10000000E+1	8.93203693E-5
1.38168400E+6	3.34985917E+2	0.00000000E+0	0.00000000E+0	2.39000000E-12	1.45933000E-9	3.40000000E+1	8.91356634E-5
1.38630400E+6	3.39986108E+2	0.00000000E+0	0.00000000E+0	2.44000000E-12	1.50397000E-9	3.20000000E+1	8.92035978E-5
1.39180400E+6	3.45023387E+2	0.00000000E+0	0.00000000E+0	2.44000000E-12	1.52366000E-9	3.30000000E+1	8.88506489E-5
1.39652700E+6	3.50014005E+2	0.00000000E+0	0.00000000E+0	2.42000000E-12	1.48645000E-9	3.20000000E+1	8.92729866E-5
1.40137600E+6	3.55006052E+2	0.00000000E+0	0.00000000E+0	2.28000000E-12	1.50265000E-9	3.10000000E+1	8.90359478E-5
1.40625200E+6	3.59983863E+2	0.00000000E+0	0.00000000E+0	2.17000000E-12	1.56204000E-9	3.20000000E+1	8.90189009E-5
1.41114900E+6	3.64977650E+2	0.00000000E+0	0.00000000E+0	2.40000000E-12	1.65939000E-9	3.90000000E+1	8.90652256E-5
1.41600100E+6	3.70001317E+2	0.00000000E+0	0.00000000E+0	2.24000000E-12	1.73458000E-9	3.90000000E+1	8.91798513E-5
1.42087000E+6	3.75037929E+2	0.00000000E+0	0.00000000E+0	2.25000000E-12	1.77298000E-9	3.80000000E+1	8.90780555E-5
1.42578100E+6	3.79987649E+2	0.00000000E+0	0.00000000E+0	2.36000000E-12	1.80863000E-9	3.70000000E+1	8.93395560E-5
1.43067500E+6	3.84997414E+2	0.00000000E+0	0.00000000E+0	2.54000000E-12	1.88109000E-9	4.20000000E+1	8.94399541E-5
1.43558700E+6	3.89955857E+2	0.00000000E+0	0.00000000E+0	2.43000000E-12	1.98159000E-9	3.60000000E+1	8.95478862E-5
1.44046000E+6	3.95036542E+2	0.00000000E+0	0.00000000E+0	2.54000000E-12	2.05597000E-9	5.10000000E+1	8.93060344E-5
1.44534400E+6	4.00024545E+2	0.00000000E+0	0.00000000E+0	2.51000000E-12	2.09183000E-9	4.20000000E+1	8.93828230E-5
1.45022800E+6	4.04987782E+2	0.00000000E+0	0.00000000E+0	2.40000000E-12	2.12559000E-9	4.10000000E+1	8.95007985E-5
1.45512700E+6	4.09968150E+2	0.00000000E+0	0.00000000E+0	2.24000000E-12	2.11778000E-9	4.30000000E+1	8.95174163E-5
1.46004100E+6	4.14980810E+2	0.00000000E+0	0.00000000E+0	2.54000000E-12	2.31156000E-9	4.20000000E+1	8.92778443E-5
1.46494200E+6	4.20034587E+2	0.00000000E+0	0.00000000E+0	2.18000000E-12	2.34214000E-9	4.10000000E+1	8.92964529E-5
1.46984800E+6	4.25023738E+2	0.00000000E+0	0.00000000E+0	2.60000000E-12	2.50716000E-9	4.30000000E+1	8.93455314E-5
1.47480400E+6	4.29989202E+2	0.00000000E+0	0.00000000E+0	2.70000000E-12	2.63397000E-9	7.10000000E+1	8.92877685E-5
1.47970100E+6	4.34977254E+2	0.00000000E+0	0.00000000E+0	2.85000000E-12	2.76431000E-9	5.60000000E+1	8.89290588E-5
1.48455600E+6	4.39996089E+2	0.00000000E+0	0.00000000E+0	2.95000000E-12	2.89945000E-9	6.40000000E+1	8.90498774E-5
1.48946700E+6	4.45028415E+2	0.00000000E+0	0.00000000E+0	2.80000000E-12	2.99242000E-9	5.90000000E+1	8.93118607E-5
1.49437200E+6	4.50018572E+2	0.00000000E+0	0.00000000E+0	2.92000000E-12	3.10115000E-9	4.90000000E+1	8.94071298E-5
1.49912900E+6	4.54968598E+2	0.00000000E+0	0.00000000E+0	2.83000000E-12	3.14275000E-9	5.60000000E+1	8.91946929E-5
1.50384600E+6	4.59985398E+2	0.00000000E+0	0.00000000E+0	2.93000000E-12	3.20043000E-9	5.90000000E+1	8.91768681E-5
1.50846000E+6	4.64997651E+2	0.00000000E+0	0.00000000E+0	3.01000000E-12	3.26851000E-9	6.70000000E+1	8.91106175E-5
1.51317300E+6	4.69994371E+2	0.00000000E+0	0.00000000E+0	3.13000000E-12	3.31870000E-9	6.60000000E+1	8.92759221E-5
1.51793200E+6	4.75026986E+2	0.00000000E+0	0.00000000E+0	3.03000000E-12	3.34091000E-9	6.50000000E+1	8.91988086E-5
1.52268500E+6	4.80008124E+2	0.00000000E+0	0.00000000E+0	3.04000000E-12	3.36704000E-9	6.00000000E+1	8.96113801E-5
1.52739700E+6	4.84991212E+2	0.00000000E+0	0.00000000E+0	2.79000000E-12	3.42275000E-9	6.30000000E+1	8.93203186E-5
1.53206200E+6	4.89994759E+2	0.00000000E+0	0.00000000E+0	2.88000000E-12	3.49740000E-9	4.50000000E+1	8.92644124E-5
1.53678800E+6	4.94978198E+2	0.00000000E+0	0.00000000E+0	3.11000000E-12	3.57355000E-9	6.00000000E+1	8.95850110E-5
1.54149900E+6	4.99996525E+2	0.00000000E+0	0.00000000E+0	3.02000000E-12	3.64052000E-9	6.50000000E+1	8.91343670E-5
1.54611500E+6	5.05038416E+2	0.00000000E+0	0.00000000E+0	3.08000000E-12	3.66455000E-9	5.40000000E+1	8.90671002E-5
1.55074300E+6	5.09997859E+2	0.00000000E+0	0.00000000E+0	2.90000000E-12	3.64237000E-9	5.70000000E+1	8.91996192E-5
1.55535700E+6	5.15008155E+2	0.00000000E+0	0.00000000E+0	3.00000000E-12	3.59517000E-9	7.00000000E+1	8.94522803E-5
1.56009300E+6	5.19988294E+2	0.00000000E+0	0.00000000E+0	3.01000000E-12	3.52371000E-9	5.60000000E+1	8.96873670E-5
1.56480700E+6	5.24982781E+2	0.00000000E+0	0.00000000E+0	2.93000000E-12	3.42320000E-9	5.00000000E+1	8.92799663E-5
1.56943600E+6	5.29990780E+2	0.00000000E+0	0.00000000E+0	2.77000000E-12	3.29710000E-9	4.80000000E+1	8.93172609E-5
1.57419700E+6	5.34997911E+2	0.00000000E+0	0.00000000E+0	2.82000000E-12	3.17842000E-9	4.70000000E+1	8.93169837E-5
1.57891000E+6	5.40002458E+2	0.00000000E+0	0.00000000E+0	3.05000000E-12	3.41067000E-9	5.10000000E+1	8.95367252E-5
1.58359300E+6	5.45045595E+2	0.00000000E+0	0.00000000E+0	3.14000000E-12	3.67268000E-9	5.40000000E+1	8.92851996E-5
1.58834800E+6	5.49989930E+2	0.00000000E+0	0.00000000E+0	4.23000000E-12	4.02523000E-9	7.40000000E+1	8.90391456E-5
1.59306800E+6	5.54992238E+2	0.00000000E+0	0.00000000E+0	5.83000000E-12	4.19623000E-9	7.50000000E+1	8.92384785E-5
1.59777600E+6	5.59988370E+2	0.00000000E+0	0.00000000E+0	5.19000000E-12	4.42452000E-9	9.20000000E+1	8.90558677E-5
1.60248500E+6	5.64973083E+2	0.00000000E+0	0.00000000E+0	4.61000000E-12	4.61205000E-9	8.50000000E+1	8.91015636E-5
1.60711400E+6	5.70003134E+2	0.00000000E+0	0.00000000E+0	4.97000000E-12	4.85686000E-9	8.90000000E+1	8.91204285E-5
1.61175500E+6	5.75015539E+2	0.00000000E+0	0.00000000E+0	5.46000000E-12	5.12228000E-9	8.30000000E+1	8.90209274E-5
1.61634900E+6	5.80021074E+2	0.00000000E+0	0.00000000E+0	5.37000000E-12	5.30269000E-9	1.01000000E+2	8.90971826E-5
1.62106800E+6	5.85008260E+2	0.00000000E+0	0.00000000E+0	5.29000000E-12	5.36998000E-9	8.20000000E+1	8.92449068E-5
1.62576500E+6	5.89977962E+2	0.00000000E+0	0.00000000E+0	4.99000000E-12	5.50037000E-9	9.20000000E+1	8.89968710E-5
1.63110000E+6	5.95002216E+2	0.00000000E+0	0.00000000E+0	5.35000000E-12	5.68850000E-9	8.20000000E+1	8.89812069E-5
1.63573000E+6	5.99968827E+2	0.00000000E+0	0.00000000E+0	5.42000000E-12	5.89593000E-9	8.90000000E+1	8.93414216E-5
1.64034600E+6	6.05004724E+2	0.00000000E+0	0.00000000E+0	5.87000000E-12	6.11929000E-9	9.20000000E+1	8.89785455E-5
1.64493000E+6	6.10025962E+2	0.00000000E+0	0.00000000E+0	5.78000000E-12	6.31987000E-9	8.20000000E+1	8.91615646E-5
1.64964800E+6	6.15002783E+2	0.00000000E+0	0.00000000E+0	6.08000000E-12	6.47661000E-9	8.80000000E+1	8.93076377E-5
1.65436400E+6	6.20009064E+2	0.00000000E+0	0.00000000E+0	5.88000000E-12	6.61288000E-9	7.20000000E+1	8.93326925E-5
1.65903600E+6	6.24992006E+2	0.00000000E+0	0.00000000E+0	6.15000000E-12	6.77229000E-9	9.90000000E+1	8.94906628E-5
1.66365000E+6	6.29974906E+2	0.00000000E+0	0.00000000E+0	6.18000000E-12	7.09390000E-9	8.60000000E+1	8.93349694E-5
1.66839700E+6	6.34975559E+2	0.00000000E+0	0.00000000E+0	6.72000000E-12	7.79901000E-9	8.50000000E+1	8.95093637E-5
1.67310300E+6	6.39993164E+2	0.00000000E+0	0.00000000E+0	7.17000000E-12	8.23281000E-9	1.09000000E+2	8.93079298E-5
1.67770800E+6	6.45023654E+2	0.00000000E+0	0.00000000E+0	7.02000000E-12	8.50437000E-9	1.12000000E+2	8.99071652E-5
1.68243000E+6	6.50018166E+2	0.00000000E+0	0.00000000E+0	7.14000000E-12	8.70131000E-9	1.22000000E+2	8.90843736E-5
1.68718600E+6	6.55017921E+2	0.00000000E+0	0.00000000E+0	7.22000000E-12	8.90809000E-9	8.80000000E+1	8.94400852E-5
1.69188100E+6	6.59974626E+2	0.00000000E+0	0.00000000E+0	7.48000000E-12	9.22791000E-9	1.08000000E+2	8.95454513E-5
1.69654600E+6	6.64966622E+2	0.00000000E+0	0.00000000E+0	7.49000000E-12	9.53996000E-9	1.04000000E+2	8.93769937E-5
1.70127800E+6	6.70000280E+2	0.00000000E+0	0.00000000E+0	7.72000000E-12	9.84243000E-9	9.90000000E+1	8.91340422E-5
1.70602200E+6	6.74992478E+2	0.00000000E+0	0.00000000E+0	7.78000000E-12	1.01069300E-8	1.00000000E+2	8.95849365E-5
1.71073600E+6	6.80035793E+2	0.00000000E+0	0.00000000E+0	7.88000000E-12	1.03387900E-8	1.21000000E+2	8.95277517E-5
1.71535300E+6	6.85029757E+2	0.00000000E+0	0.00000000E+0	7.99000000E-12	1.05503100E-8	1.13000000E+2	8.95891743E-5
1.72006700E+6	6.89974453E+2	0.00000000E+0	0.00000000E+0	8.00000000E-12	1.07527200E-8	7.50000000E+1	8.91424047E-5
1.72467900E+6	6.95010492E+2	0.00000000E+0	0.00000000E+0	8.11000000E-12	1.09722900E-8	1.00000000E+2	8.92622458E-5
1.72940700E+6	6.99962160E+2	0.00000000E+0	0.00000000E+0	8.12000000E-12	1.12046300E-8	8.90000000E+1	8.92919587E-5
1.73406100E+6	7.04995249E+2	0.00000000E+0	0.00000000E+0	8.36000000E-12	1.14574000E-8	1.02000000E+2	8.92821836E-5
1.73868400E+6	7.10021624E+2	0.00000000E+0	0.00000000E+0	8.44000000E-12	1.16677500E-8	1.12000000E+2	8.92257201E-5
1.74337300E+6	7.15005514E+2	0.00000000E+0	0.00000000E+0	8.48000000E-12	1.17865500E-8	9.20000000E+1	8.90568839E-5
1.74810300E+6	7.20008630E+2	0.00000000E+0	0.00000000E+0	8.51000000E-12	1.18123600E-8	9.10000000E+1	8.86675732E-5
1.75282300E+6	7.24986957E+2	0.00000000E+0	0.00000000E+0	9.18000000E-12	1.18974900E-8	9.90000000E+1	8.94945937E-5
1.75746800E+6	7.29991763E+2	0.00000000E+0	0.00000000E+0	8.64000000E-12	1.20112300E-8	9.40000000E+1	8.90864955E-5
1.76218000E+6	7.34984228E+2	0.00000000E+0	0.00000000E+0	8.91000000E-12	1.20154500E-8	9.10000000E+1	8.92262357E-5
1.76695400E+6	7.39992055E+2	0.00000000E+0	0.00000000E+0	8.74000000E-12	1.21363400E-8	7.80000000E+1	8.92333644E-5
1.77168200E+6	7.45011514E+2	0.00000000E+0	0.00000000E+0	8.70000000E-12	1.22036600E-8	1.04000000E+2	8.90381293E-5
1.77639900E+6	7.50016360E+2	0.00000000E+0	0.00000000E+0	8.84000000E-12	1.22891600E-8	9.40000000E+1	8.91346889E-5
1.78086300E+6	7.55007588E+2	0.00000000E+0	0.00000000E+0	8.95000000E-12	1.24277300E-8	7.40000000E+1	8.92319845E-5
1.78533100E+6	7.60003705E+2	0.00000000E+0	0.00000000E+0	9.00000000E-12	1.25664700E-8	9.50000000E+1	8.92064052E-5
1.78982800E+6	7.64999095E+2	0.00000000E+0	0.00000000E+0	9.11000000E-12	1.25868800E-8	9.70000000E+1	8.91636538E-5
1.79426900E+6	7.70000522E+2	0.00000000E+0	0.00000000E+0	9.13000000E-12	1.25469500E-8	8.60000000E+1	8.93287795E-5
1.79870100E+6	7.74987099E+2	0.00000000E+0	0.00000000E+0	9.07000000E-12	1.25491100E-8	9.90000000E+1	8.91709106E-5
1.80313000E+6	7.79994410E+2	0.00000000E+0	0.00000000E+0	9.19000000E-12	1.26343200E-8	8.50000000E+1	8.90967296E-5
1.80759800E+6	7.84993411E+2	0.00000000E+0	0.00000000E+0	9.34000000E-12	1.27694900E-8	9.00000000E+1	8.93574911E-5
1.81206900E+6	7.90003652E+2	0.00000000E+0	0.00000000E+0	9.38000000E-12	1.28565300E-8	8.30000000E+1	8.91196566E-5
1.81653100E+6	7.95014026E+2	0.00000000E+0	0.00000000E+0	9.47000000E-12	1.28562100E-8	9.40000000E+1	8.91301589E-5
1.82103700E+6	8.00000273E+2	0.00000000E+0	0.00000000E+0	9.49000000E-12	1.28024200E-8	8.70000000E+1	8.90983598E-5
1.82553200E+6	8.05011420E+2	0.00000000E+0	0.00000000E+0	9.46000000E-12	1.26957300E-8	8.50000000E+1	8.92491209E-5
1.82997600E+6	8.09994335E+2	0.00000000E+0	0.00000000E+0	9.36000000E-12	1.25489200E-8	9.40000000E+1	8.90198128E-5
1.83440700E+6	8.14995849E+2	0.00000000E+0	0.00000000E+0	9.58000000E-12	1.23795000E-8	9.00000000E+1	8.93518107E-5
1.83891600E+6	8.19988290E+2	0.00000000E+0	0.00000000E+0	9.52000000E-12	1.22174300E-8	9.10000000E+1	8.89235841E-5
1.84339800E+6	8.25000581E+2	0.00000000E+0	0.00000000E+0	9.51000000E-12	1.20767800E-8	7.90000000E+1	8.90566336E-5
1.84784700E+6	8.29998521E+2	0.00000000E+0	0.00000000E+0	9.49000000E-12	1.19756500E-8	8.50000000E+1	8.93828022E-5
1.85230200E+6	8.34987002E+2	0.00000000E+0	0.00000000E+0	9.54000000E-12	1.18543800E-8	8.10000000E+1	8.94106673E-5
1.85672000E+6	8.39994442E+2	0.00000000E+0	0.00000000E+0	9.46000000E-12	1.16897900E-8	1.13000000E+2	8.93353569E-5
1.86192600E+6	8.45010461E+2	0.00000000E+0	0.00000000E+0	9.50000000E-12	1.15102200E-8	1.10000000E+2	8.94878613E-5
1.86636100E+6	8.50029976E+2	0.00000000E+0	0.00000000E+0	9.45000000E-12	1.13350000E-8	9.60000000E+1	8.91678201E-5
1.87019600E+6	8.54987813E+2	0.00000000E+0	0.00000000E+0	9.54000000E-12	1.11538200E-8	9.60000000E+1	8.94632834E-5
1.87410000E+6	8.60007243E+2	0.00000000E+0	0.00000000E+0	9.61000000E-12	1.09853600E-8	9.80000000E+1	8.94723313E-5
1.87795300E+6	8.65002580E+2	0.00000000E+0	0.00000000E+0	9.65000000E-12	1.08184700E-8	8.80000000E+1	8.96101731E-5
1.88184900E+6	8.70007403E+2	0.00000000E+0	0.00000000E+0	9.68000000E-12	1.06632600E-8	6.90000000E+1	8.95948934E-5
1.88567700E+6	8.75002244E+2	0.00000000E+0	0.00000000E+0	9.79000000E-12	1.05014000E-8	8.90000000E+1	8.93995451E-5
1.88949500E+6	8.79991707E+2	0.00000000E+0	0.00000000E+0	9.78000000E-12	1.03392200E-8	8.70000000E+1	8.93965530E-5
1.89336100E+6	8.85004514E+2	0.00000000E+0	0.00000000E+0	9.77000000E-12	1.01781200E-8	1.08000000E+2	8.95967113E-5
1.89720900E+6	8.90010689E+2	0.00000000E+0	0.00000000E+0	9.81000000E-12	1.00252400E-8	9.30000000E+1	8.92071383E-5
1.90109300E+6	8.94996162E+2	0.00000000E+0	0.00000000E+0	9.92000000E-12	9.87200000E-9	8.70000000E+1	8.93668043E-5
1.90497200E+6	9.00000124E+2	0.00000000E+0	0.00000000E+0	9.91000000E-12	9.71808000E-9	8.30000000E+1	8.94352185E-5
1.90882000E+6	9.05003078E+2	0.00000000E+0	0.00000000E+0	1.00200000E-11	9.56299000E-9	9.10000000E+1	8.94864606E-5
1.91266300E+6	9.10008560E+2	0.00000000E+0	0.00000000E+0	9.92000000E-12	9.40807000E-9	8.90000000E+1	8.94566494E-5
1.91652800E+6	9.14996635E+2	0.00000000E+0	0.00000000E+0	9.93000000E-12	9.25151000E-9	9.10000000E+1	8.93990832E-5
1.92027600E+6	9.19967479E+2	0.00000000E+0	0.00000000E+0	1.00600000E-11	9.09706000E-9	1.00000000E+2	8.91743885E-5
1.92412200E+6	9.25027373E+2	0.00000000E+0	0.00000000E+0	9.90000000E-12	8.93935000E-9	1.06000000E+2	8.92883586E-5
1.92802500E+6	9.30003333E+2	0.00000000E+0	0.00000000E+0	1.00600000E-11	8.78054000E-9	1.10000000E+2	8.90435385E-5
1.93188500E+6	9.34995831E+2	0.00000000E+0	0.00000000E+0	9.96000000E-12	8.61586000E-9	1.02000000E+2	8.93622177E-5
1.93575400E+6	9.40005685E+2	0.00000000E+0	0.00000000E+0	9.89000000E-12	8.44145000E-9	1.00000000E+2	8.90467273E-5
1.93960400E+6	9.44985473E+2	0.00000000E+0	0.00000000E+0	9.90000000E-12	8.24296000E-9	8.10000000E+1	8.92743217E-5
1.94347100E+6	9.50013771E+2	0.00000000E+0	0.00000000E+0	9.91000000E-12	8.08907000E-9	9.50000000E+1	8.90730159E-5
1.94719200E+6	9.54996265E+2	0.00000000E+0	0.00000000E+0	9.83000000E-12	7.92337000E-9	9.50000000E+1	8.92629968E-5
1.95093600E+6	9.59982154E+2	0.00000000E+0	0.00000000E+0	9.76000000E-12	7.76278000E-9	9.10000000E+1	8.91425150E-5
1.95465500E+6	9.65010955E+2	0.00000000E+0	0.00000000E+0	9.84000000E-12	7.60693000E-9	8.70000000E+1	8.92079311E-5
1.95837400E+6	9.70013050E+2	0.00000000E+0	0.00000000E+0	9.86000000E-12	7.46860000E-9	1.00000000E+2	8.92244028E-5
1.96210300E+6	9.75011049E+2	0.00000000E+0	0.00000000E+0	9.72000000E-12	7.33861000E-9	8.10000000E+1	8.92025666E-5
1.96583900E+6	9.80009732E+2	0.00000000E+0	0.00000000E+0	9.63000000E-12	7.21616000E-9	8.40000000E+1	8.91607212E-5
1.96957200E+6	9.84986755E+2	0.00000000E+0	0.00000000E+0	9.71000000E-12	7.09630000E-9	8.00000000E+1	8.93938201E-5
1.97328800E+6	9.89998867E+2	0.00000000E+0	0.00000000E+0	9.66000000E-12	6.97348000E-9	7.90000000E+1	8.91187893E-5
1.97700900E+6	9.94989431E+2	0.00000000E+0	0.00000000E+0	9.47000000E-12	6.85622000E-9	8.50000000E+1	8.93449830E-5
1.98076300E+6	1.00001073E+3	0.00000000E+0	0.00000000E+0	9.54000000E-12	6.74068000E-9	8.40000000E+1	8.94407766E-5
1.98447200E+6	1.00500200E+3	0.00000000E+0	0.00000000E+0	9.48000000E-12	6.62650000E-9	6.90000000E+1	8.92026114E-5
1.98819300E+6	1.01000528E+3	0.00000000E+0	0.00000000E+0	9.33000000E-12	6.51302000E-9	7.40000000E+1	8.91571241E-5
1.99195800E+6	1.01500500E+3	0.00000000E+0	0.00000000E+0	9.42000000E-12	6.40089000E-9	8.60000000E+1	8.93129694E-5
1.99565400E+6	1.01999650E+3	0.00000000E+0	0.00000000E+0	9.34000000E-12	6.29223000E-9	7.40000000E+1	8.91034203E-5
1.99939700E+6	1.02499725E+3	0.00000000E+0	0.00000000E+0	9.23000000E-12	6.18992000E-9	8.90000000E+1	8.92933863E-5
2.00311100E+6	1.03000965E+3	0.00000000E+0	0.00000000E+0	9.22000000E-12	6.08966000E-9	7.70000000E+1	8.92505871E-5
2.00686100E+6	1.03499583E+3	0.00000000E+0	0.00000000E+0	9.06000000E-12	5.98586000E-9	8.90000000E+1	8.89505939E-5
2.01057200E+6	1.03999591E+3	0.00000000E+0	0.00000000E+0	9.00000000E-12	5.87766000E-9	8.60000000E+1	8.92691838E-5
2.01429600E+6	1.04501840E+3	0.00000000E+0	0.00000000E+0	9.05000000E-12	5.76778000E-9	7.80000000E+1	8.90982794E-5
2.01800300E+6	1.04998230E+3	0.00000000E+0	0.00000000E+0	8.83000000E-12	5.65873000E-9	7.60000000E+1	8.90297757E-5
2.02213500E+6	1.05498631E+3	0.00000000E+0	0.00000000E+0	8.88000000E-12	5.58470000E-9	7.20000000E+1	8.92072069E-5
2.02627800E+6	1.05999423E+3	0.00000000E+0	0.00000000E+0	8.75000000E-12	5.50340000E-9	7.50000000E+1	8.89291691E-5
2.03034700E+6	1.06501557E+3	0.00000000E+0	0.00000000E+0	8.72000000E-12	5.42203000E-9	6.40000000E+1	8.92634260E-5
2.03438800E+6	1.07003257E+3	0.00000000E+0	0.00000000E+0	8.59000000E-12	5.33014000E-9	7.40000000E+1	8.91099202E-5
2.03859300E+6	1.07496956E+3	0.00000000E+0	0.00000000E+0	8.50000000E-12	5.23674000E-9	6.50000000E+1	8.90636967E-5
2.04273300E+6	1.08002217E+3	0.00000000E+0	0.00000000E+0	8.37000000E-12	5.13406000E-9	6.20000000E+1	8.91819196E-5
2.04687900E+6	1.08498909E+3	0.00000000E+0	0.00000000E+0	8.29000000E-12	5.02446000E-9	6.80000000E+1	8.94338059E-5
2.05104600E+6	1.09000216E+3	0.00000000E+0	0.00000000E+0	8.47000000E-12	4.92561000E-9	8.10000000E+1	8.91489016E-5
2.05590600E+6	1.09498921E+3	0.00000000E+0	0.00000000E+0	8.15000000E-12	4.83451000E-9	7.20000000E+1	8.92209487E-5
2.05996100E+6	1.10002039E+3	0.00000000E+0	0.00000000E+0	7.90000000E-12	4.74478000E-9	6.10000000E+1	8.92942863E-5
2.06400200E+6	1.10499257E+3	0.00000000E+0	0.00000000E+0	7.94000000E-12	4.66829000E-9	6.60000000E+1	8.92746555E-5
2.06814300E+6	1.10999174E+3	0.00000000E+0	0.00000000E+0	7.90000000E-12	4.58435000E-9	6.50000000E+1	8.95068931E-5
2.07225500E+6	1.11499497E+3	0.00000000E+0	0.00000000E+0	7.83000000E-12	4.49522000E-9	5.30000000E+1	8.96585422E-5
2.07637000E+6	1.11998778E+3	0.00000000E+0	0.00000000E+0	7.65000000E-12	4.40665000E-9	6.20000000E+1	8.93993901E-5
2.08048700E+6	1.12502776E+3	0.00000000E+0	0.00000000E+0	7.46000000E-12	4.31812000E-9	6.10000000E+1	8.94821751E-5
2.08462400E+6	1.12997123E+3	0.00000000E+0	0.00000000E+0	7.40000000E-12	4.23085000E-9	5.90000000E+1	8.94332307E-5
2.08864200E+6	1.13504136E+3	0.00000000E+0	0.00000000E+0	7.30000000E-12	4.14325000E-9	4.70000000E+1	8.92878639E-5
2.09280800E+6	1.13997468E+3	0.00000000E+0	0.00000000E+0	7.00000000E-12	4.05536000E-9	6.40000000E+1	8.94065755E-5
2.09695900E+6	1.14497587E+3	0.00000000E+0	0.00000000E+0	6.94000000E-12	3.96293000E-9	6.00000000E+1	8.90044736E-5
2.10099600E+6	1.15003309E+3	0.00000000E+0	0.00000000E+0	6.86000000E-12	3.86866000E-9	5.50000000E+1	8.96720278E-5
2.10513100E+6	1.15497597E+3	0.00000000E+0	0.00000000E+0	6.65000000E-12	3.76546000E-9	5.60000000E+1	8.92902421E-5
2.10927200E+6	1.16000154E+3	0.00000000E+0	0.00000000E+0	6.43000000E-12	3.62183000E-9	4.30000000E+1	8.93821495E-5
2.11339000E+6	1.16501820E+3	0.00000000E+0	0.00000000E+0	6.16000000E-12	3.42664000E-9	3.40000000E+1	8.90521662E-5
2.11758200E+6	1.16998532E+3	0.00000000E+0	0.00000000E+0	5.69000000E-12	3.22907000E-9	4.00000000E+1	8.92872261E-5
2.12172600E+6	1.17501493E+3	0.00000000E+0	0.00000000E+0	5.51000000E-12	3.03200000E-9	5.00000000E+1	8.92427312E-5
2.12587000E+6	1.18001792E+3	0.00000000E+0	0.00000000E+0	5.02000000E-12	2.83546000E-9	3.80000000E+1	8.92254012E-5
2.13003700E+6	1.18496653E+3	0.00000000E+0	0.00000000E+0	4.71000000E-12	2.64382000E-9	4.20000000E+1	8.94311117E-5
2.13416900E+6	1.19001523E+3	0.00000000E+0	0.00000000E+0	4.41000000E-12	2.45478000E-9	3.40000000E+1	8.93104183E-5
2.13816100E+6	1.19503629E+3	0.00000000E+0	0.00000000E+0	4.09000000E-12	2.26957000E-9	3.40000000E+1	8.94788670E-5
2.14230700E+6	1.19995162E+3	0.00000000E+0	0.00000000E+0	3.87000000E-12	2.08856000E-9	5.00000000E+1	8.92266797E-5
