G:\BEAR_storage\User_Experiments\20220317_arneodo\file(1)_Region 3__0047.txt
Ring Energy (GeV): 2
Lifetime (hours): 15.41
Scan beginning: 3/19/2022	8:45:40 AM
Ring current (mA): 308.54
Source position: x (mm): -0 x' (mrad): 0.001 y (mm): 0.001 y' (mrad): 0.003
Scan end: 3/19/2022	8:58:56 AM
Ring current (mA): 309.56
Source position: x (mm): -0.002 x' (mrad): 0.001 y (mm): 0.002 y' (mrad): 0.003

SCAN TYPE: PHOTON ENERGY VS VAR_1 VS VAR_2

FILE INFO: FILE INFO:

SCAN PARAMETERS
waiting time (ms): 1000
Number of scans: 1
Current scan number: 1
DARK OFF 
PREDARK OFF 

SCAN PARAMETERS
Regions configuration: 
number of regions: 7
Mirror grating scan: on
Timed acquisition: off
Region 1:
Initial energy (eV): 40.000000
Final energy (eV): 72.000000
Delta energy (eV): 1.000000
Deviation angle choice: Higher order rejection
Deviation angle (°): NaN
Al filter
G1200 channel
range keithley B 20 nA
range keithley C 2 uA
range keithley A 2 uA
Var_1: PsiC 0.000000
Var_2: PhiM0.000000
Bias CEM (V): 0.000000
Bias Keithley B (V): -30.000000
Name region: 
Region 2:
Initial energy (eV): 70.000000
Final energy (eV): 102.000000
Delta energy (eV): 1.000000
Deviation angle choice: Higher order rejection
Deviation angle (°): NaN
Si filter
G1200 channel
range keithley B 20 nA
range keithley C 20 uA
range keithley A 20 nA
Var_1: PsiC 0.000000
Var_2: PhiM0.000000
Bias CEM (V): 0.000000
Bias Keithley B (V): -30.000000
Name region: 
Region 3:
Initial energy (eV): 98.000000
Final energy (eV): 260.000000
Delta energy (eV): 1.000000
Deviation angle choice: Higher order rejection
Deviation angle (°): NaN
Full Beam
G1200 channel
range keithley B 20 nA
range keithley C 200 uA
range keithley A 200 nA
Var_1: PsiC 0.000000
Var_2: PhiM0.000000
Bias CEM (V): 0.000000
Bias Keithley B (V): -30.000000
Name region: 
Region 4:
Initial energy (eV): 255.000000
Final energy (eV): 320.000000
Delta energy (eV): 1.000000
Deviation angle choice: Higher order rejection
Deviation angle (°): NaN
filter Ag 0.6 um
G1200 channel
range keithley B 200 pA
range keithley C 2 uA
range keithley A 20 nA
Var_1: PsiC 0.000000
Var_2: PhiM0.000000
Bias CEM (V): 0.000000
Bias Keithley B (V): -30.000000
Name region: 
Region 5:
Initial energy (eV): 255.000000
Final energy (eV): 320.000000
Delta energy (eV): 1.000000
Deviation angle choice: Higher order rejection
Deviation angle (°): NaN
Full Beam
G1200 channel
range keithley B 200 pA
range keithley C 2 uA
range keithley A 20 nA
Var_1: PsiC 0.000000
Var_2: PhiM0.000000
Bias CEM (V): 0.000000
Bias Keithley B (V): -30.000000
Name region: 
Region 6:
Initial energy (eV): 315.000000
Final energy (eV): 1200.000000
Delta energy (eV): 5.000000
Deviation angle choice: Higher order rejection
Deviation angle (°): NaN
Full Beam
G1200 channel
range keithley B 20 nA
range keithley C 20 uA
range keithley A 200 nA
Var_1: PsiC 0.000000
Var_2: PhiM0.000000
Bias CEM (V): 0.000000
Bias Keithley B (V): -30.000000
Name region: 
Region 7:
Initial energy (eV): 1190.000000
Final energy (eV): 1500.000000
Delta energy (eV): 5.000000
Deviation angle choice: Higher order rejection
Deviation angle (°): NaN
filter Ag 0.6 um
G1200 channel
range keithley B 200 pA
range keithley C 2 uA
range keithley A 200 pA
Var_1: PsiC 0.000000
Var_2: PhiM0.000000
Bias CEM (V): 0.000000
Bias Keithley B (V): -30.000000
Name region: 

BEAR MONOCHROMATOR CONFIGURATION: 
Current Grating Position:     160137.70
Current Mirror Position: 298443.5
Current Grating: G1200
P2 phiz position:  0.0000
Mono axis position: 25.0000
Current Photon Energy (eV): 1500.014
Current Deviation Angle: 175.800
Vertical Exit Slits (um): 450.000
Exit slit y axis position: 2.2375
Horizontal Exit Slits (um):  889.156
Exit slit z axis position: 1.9229
Mitutoyo position (mm): 

Dose on sample (mJ/cm^2): NaN

ENERGY CALIBRATION:
offset grating G1200: yes
Delta 0 order G1200:  -800.0
offset grating G1800: not
Delta 0 order G1800:  0.0
offset grating GNIM: not
Delta 0 order GNIM:  0.0
ZERO ORDER POSITIONS:
Grating G1200: Mirror position:  4938.0
Grating position: -105355.0
Grating G1800: 
Mirror position:  4938.0
Grating position: -106345.0
Grating GNIM: 
Mirror position:  10000.0
Grating position: 227300.0

Initial filter: Ag filter 0.6 um

EXPERIMENTAL CHAMBER CONFIGURATION: 
PsiC (deg):   -0.000186
Phi Analyzer (degrees): 89.992308
Theta Manipulator (degrees): -44.000040
Theta Analyzer (degrees): -135.001468
PhiM (degrees): -0.004103
XM (mm): 0.000713
YM (mm): 19.932987
ZM (mm): (Warning: for kinetic energy scans, 
this parameter is given in the scan settings) 
-6.601438
TiltM (°): 0.000138

ELECTRON ANALYZER CONFIGURATION: 
Current Kinetik energy (eV): 35.0
Mode: DE = COST
Pass Energy (eV):  50.000
CEM: ON
Bias Front-Back CEM (V): 3499.561
Bias Back-Collector CEM (V): 100.874
Bias Retard-Front CEM: 100.087COIL VALUES
Ix (amps):2.820
Iy (amps): 6.789
Iz (amps): 37.337

POLARIZATION SELECTOR CONFIGURATION:
Psi1 (rad): -0.001665535
Psi2 (rad): 0.001417093
Z min position (mm): 46.599650
DZ position (mm): 18.599100
Zmin 0 (mm): 66.500000
DZ0 (mm): 53.000000

BEAM SELECTOR CONFIGURATION:
Zmin position (mm): NaN
DZ position (mm): NaN
Y+ position (mm): NaN
Y- position (mm): NaN

CHANNEL ELECTRON MULTIPLIER CONFIGURATION:
CEM configured: OFF
Bias CEM: 0.000000

FLUORESCENCE DETECTOR CONFIGURATION:
Not configured

LUMINESCENCE MONOCHROMATOR CONFIGURATION:
Optical fiber position (mm): 0.000000
Optical fiber Switch inside: OFF
Optical fiber Switch outside: ON
Monochromator wavelength (A): 0.000000
Limit Switches: ON

I0 MONITOR PARAMETERS:
I0 detector position(mm): -0.000000E+0
Lower switch: OFF
Upper switch: OFF
Valve status:open

PRESSURE PARAMETERS:
Monitor chamber pressure (mbar): 8.935e-10
Experimental chamber pressure -ION GAUGE-(mbar): 0.000000E+0

XMCD PARAMETERS:
Xmcd OFF
Xmcd Direction -
Xmcd current (A): 0.000000

Gated scan off

Instrument 1: AMMETER KEITHLEY 6517A B
Measure type: Current
range type: set range value
range value (ampere):  200 pA
Integration time:  set NPLC value
NPLC value: 10.000
Digital filter count: 2
SAMPLE BIAS (V): -30.000
Vsource: ON
Output Voltage value: 30.000
Vsource range: 1000 V

Range Keithley B changed to 20 nA

Range Keithley B changed to 200 pA

Range Keithley B changed to 20 nA

Range Keithley B changed to 200 pA

Range Keithley B changed to 20 nA

Range Keithley B changed to 200 pA

Range Keithley B changed to 20 nA

Range Keithley B changed to 200 nA

Range Keithley B changed to 200 pA

Range Keithley B changed to 20 nA

Range Keithley B changed to 200 pA

Range Keithley B changed to 20 nA

Range Keithley B changed to 200 pA

Range Keithley B changed to 20 nA

Range Keithley B changed to 200 pA

Range Keithley B changed to 20 nA

Range Keithley B changed to 200 pA

Range Keithley B changed to 20 nA

Range Keithley B changed to 200 pA

Range Keithley B changed to 20 nA

Range Keithley B changed to 200 pA

Range Keithley B changed to 20 nA

Range Keithley B changed to 200 pA

Range Keithley B changed to 20 nA

Range Keithley B changed to 200 pA

Range Keithley B changed to 20 nA

Range Keithley B changed to 200 pA

Range Keithley B changed to 20 nA

Range Keithley B changed to 200 pA

Instrument 2: AMMETER KEITHLEY 6517A A
Measure type: Current
range type: set range value
range value (ampere):  200 nA
Integration time:  set NPLC value
NPLC value: 10.000
Digital filter count: 2
Vsource: OFF
Output Voltage value: -0.000
Vsource range: 100 V
Trigger source: bus

Range Keithley A changed to 20 nA

Range Keithley A changed to 200 nA

Range Keithley A changed to 200 pA

Range Keithley A changed to 20 nA

Range Keithley A changed to 200 pA

Range Keithley A changed to 20 nA

Range Keithley A changed to 200 nA

Range Keithley A changed to 200 pA

Range Keithley A changed to 20 nA

Range Keithley A changed to 200 pA

Range Keithley A changed to 20 nA

Range Keithley A changed to 200 nA

Range Keithley A changed to 200 pA

Range Keithley A changed to 20 nA

Range Keithley A changed to 200 pA

Range Keithley A changed to 20 nA

Range Keithley A changed to 200 pA

Range Keithley A changed to 20 nA

Range Keithley A changed to 200 pA

Range Keithley A changed to 20 nA

Range Keithley A changed to 200 pA

Range Keithley A changed to 20 nA

Range Keithley A changed to 200 nA

Range Keithley A changed to 200 pA

Range Keithley A changed to 20 nA

Range Keithley A changed to 200 pA

Range Keithley A changed to 20 nA

Range Keithley A changed to 200 nA

Range Keithley A changed to 200 pA

Range Keithley A changed to 20 nA

Range Keithley A changed to 200 nA

Range Keithley A changed to 200 pA

Range Keithley A changed to 20 nA

Range Keithley A changed to 200 pA

Range Keithley A changed to 20 nA

Range Keithley A changed to 200 pA

Range Keithley A changed to 20 nA

Range Keithley A changed to 200 nA

Range Keithley A changed to 200 pA

Range Keithley A changed to 20 nA

Range Keithley A changed to 200 pA

Range Keithley A changed to 20 nA

Range Keithley A changed to 200 nA

Range Keithley A changed to 20 nA

Range Keithley A changed to 200 nA

Range Keithley A changed to 200 pA

Range Keithley A changed to 20 nA

Range Keithley A changed to 200 nA

Range Keithley A changed to 2 uA

Range Keithley A changed to 20 nA

Range Keithley A changed to 200 nA

Range Keithley A changed to 2 uA

Range Keithley A changed to 20 nA

Range Keithley A changed to 200 nA

Range Keithley A changed to 200 pA

Range Keithley A changed to 2 uA

Range Keithley A changed to 20 nA

Range Keithley A changed to 200 nA

Range Keithley A changed to 200 pA

Range Keithley A changed to 20 nA

Range Keithley A changed to 2 uA

Range Keithley A changed to 20 nA

Range Keithley A changed to 200 nA

Range Keithley A changed to 20 nA

Range Keithley A changed to 200 nA

Range Keithley A changed to 200 pA

Range Keithley A changed to 2 uA

Range Keithley A changed to 20 nA

Range Keithley A changed to 200 nA

Range Keithley A changed to 20 nA

Instrument 3: AMMETER KEITHLEY 6517A C 
Measure type: Current
range type: set range value
range value (ampere):  2 uA
Integration time:  set NPLC value
NPLC value: 10.000
Digital filter count: 2
Vsource: OFF
Output Voltage value: -0.000
Vsource range: 100 V
Trigger source: bus


Range Keithley C changed to 20 uA


Range Keithley C changed to 2 uA


Range Keithley C changed to 200 uA


Range Keithley C changed to 2 uA


Range Keithley C changed to 20 uA


Range Keithley C changed to 200 uA


Range Keithley C changed to 2 uA


Range Keithley C changed to 20 uA


Range Keithley C changed to 2 uA


Range Keithley C changed to 20 uA


Range Keithley C changed to 200 uA


Range Keithley C changed to 2 uA


________________________________________________________________________________

RelativeTime (msec)	Photon Energy	Var_1	Var_2	INSTR_1_Sample with Bias _(ampere ) 	INSTR_2_Monitor IM_(ampere)  	INSTR_3_Diode A3_(ampere)	I_BPM_sum (Amps)	
________________________________________________________________________________

2.53937000E+5	9.80010492E+1	0.00000000E+0	0.00000000E+0	-2.80000000E-13	1.96206000E-8	1.14256000E-5	8.93631058E-5
2.57778000E+5	9.89988265E+1	0.00000000E+0	0.00000000E+0	-2.60000000E-13	2.03638000E-8	1.19352000E-5	8.90160220E-5
2.60860000E+5	1.00000181E+2	0.00000000E+0	0.00000000E+0	-4.00000000E-13	2.10402000E-8	1.23904000E-5	8.89411704E-5
2.63999000E+5	1.00999882E+2	0.00000000E+0	0.00000000E+0	-2.50000000E-13	2.16509000E-8	1.28030000E-5	8.90694128E-5
2.67033000E+5	1.01999883E+2	0.00000000E+0	0.00000000E+0	-4.70000000E-13	2.23525000E-8	1.30570000E-5	8.90898543E-5
2.70071000E+5	1.02999811E+2	0.00000000E+0	0.00000000E+0	-1.40000000E-13	2.32120000E-8	1.33690000E-5	8.87083100E-5
2.73136000E+5	1.03999500E+2	0.00000000E+0	0.00000000E+0	-2.10000000E-13	2.41085000E-8	1.39587000E-5	8.95211088E-5
2.76205000E+5	1.05000098E+2	0.00000000E+0	0.00000000E+0	-2.70000000E-13	2.50231000E-8	1.45719000E-5	8.90869902E-5
2.79299000E+5	1.05999984E+2	0.00000000E+0	0.00000000E+0	-3.40000000E-13	2.60457000E-8	1.53331000E-5	8.90867310E-5
2.82392000E+5	1.06999917E+2	0.00000000E+0	0.00000000E+0	-3.80000000E-13	2.72069000E-8	1.58859000E-5	8.93752741E-5
2.85504000E+5	1.07999814E+2	0.00000000E+0	0.00000000E+0	-1.10000000E-13	2.84288000E-8	1.62380000E-5	8.90522288E-5
2.88481000E+5	1.08999375E+2	0.00000000E+0	0.00000000E+0	-4.10000000E-13	2.94531000E-8	1.67905000E-5	8.91960250E-5
2.91405000E+5	1.09999487E+2	0.00000000E+0	0.00000000E+0	-2.70000000E-13	3.06210000E-8	1.70410000E-5	8.91842144E-5
2.94486000E+5	1.11000880E+2	0.00000000E+0	0.00000000E+0	-2.20000000E-13	3.15798000E-8	1.78569000E-5	8.89859216E-5
2.97434000E+5	1.11998670E+2	0.00000000E+0	0.00000000E+0	-7.00000000E-14	3.24950000E-8	1.87536000E-5	8.94040751E-5
3.00370000E+5	1.12999966E+2	0.00000000E+0	0.00000000E+0	-2.20000000E-13	3.34418000E-8	1.93483000E-5	8.91966300E-5
3.03310000E+5	1.14000116E+2	0.00000000E+0	0.00000000E+0	-3.60000000E-13	3.43426000E-8	1.98539000E-5	8.92374324E-5
3.06237000E+5	1.14999363E+2	0.00000000E+0	0.00000000E+0	-4.60000000E-13	3.51775000E-8	2.03240000E-5	8.89977651E-5
3.09168000E+5	1.16001166E+2	0.00000000E+0	0.00000000E+0	-3.40000000E-13	3.59726000E-8	2.07153000E-5	8.90836762E-5
3.12107000E+5	1.16999532E+2	0.00000000E+0	0.00000000E+0	-1.70000000E-13	3.66991000E-8	2.10452000E-5	8.91297119E-5
3.15071000E+5	1.17999592E+2	0.00000000E+0	0.00000000E+0	-7.70000000E-13	3.72730000E-8	2.13857000E-5	8.90692012E-5
3.18008000E+5	1.18999591E+2	0.00000000E+0	0.00000000E+0	-3.60000000E-13	3.76482000E-8	2.16918000E-5	8.88760851E-5
3.20919000E+5	1.20000224E+2	0.00000000E+0	0.00000000E+0	-3.30000000E-13	3.78591000E-8	2.19169000E-5	8.94119727E-5
3.23862000E+5	1.20999361E+2	0.00000000E+0	0.00000000E+0	-6.30000000E-13	3.79707000E-8	2.20602000E-5	8.89979796E-5
3.26824000E+5	1.21999435E+2	0.00000000E+0	0.00000000E+0	-3.10000000E-13	3.80246000E-8	2.21329000E-5	8.90178638E-5
3.29776000E+5	1.22999780E+2	0.00000000E+0	0.00000000E+0	-5.00000000E-13	3.80056000E-8	2.21242000E-5	8.90395390E-5
3.32738000E+5	1.24000301E+2	0.00000000E+0	0.00000000E+0	-3.20000000E-13	3.79007000E-8	2.20297000E-5	8.93710213E-5
3.35698000E+5	1.24999989E+2	0.00000000E+0	0.00000000E+0	-4.40000000E-13	3.77271000E-8	2.18689000E-5	8.91949522E-5
3.38622000E+5	1.25999343E+2	0.00000000E+0	0.00000000E+0	-5.40000000E-13	3.74861000E-8	2.16519000E-5	8.92115312E-5
3.41596000E+5	1.26999867E+2	0.00000000E+0	0.00000000E+0	-1.60000000E-13	3.71625000E-8	2.13825000E-5	8.89850365E-5
3.44510000E+5	1.27999939E+2	0.00000000E+0	0.00000000E+0	-3.00000000E-13	3.67423000E-8	2.10652000E-5	8.89748143E-5
3.47441000E+5	1.29000473E+2	0.00000000E+0	0.00000000E+0	-4.90000000E-13	3.62405000E-8	2.07178000E-5	8.86042760E-5
3.50250000E+5	1.29998120E+2	0.00000000E+0	0.00000000E+0	-3.20000000E-13	3.56670000E-8	2.03482000E-5	8.91583907E-5
3.53186000E+5	1.31001511E+2	0.00000000E+0	0.00000000E+0	-2.10000000E-13	3.50105000E-8	1.99477000E-5	8.89915364E-5
3.55975000E+5	1.31998878E+2	0.00000000E+0	0.00000000E+0	-2.20000000E-13	3.42667000E-8	1.95134000E-5	8.90716570E-5
3.59524000E+5	1.33000044E+2	0.00000000E+0	0.00000000E+0	-5.50000000E-13	3.34510000E-8	1.90551000E-5	8.89195727E-5
3.62316000E+5	1.33999188E+2	0.00000000E+0	0.00000000E+0	-6.00000000E-14	3.25908000E-8	1.85836000E-5	8.92291920E-5
3.65122000E+5	1.35000856E+2	0.00000000E+0	0.00000000E+0	-6.60000000E-13	3.16271000E-8	1.80619000E-5	8.95987856E-5
3.67954000E+5	1.36000496E+2	0.00000000E+0	0.00000000E+0	-7.30000000E-13	3.05747000E-8	1.74968000E-5	8.91944515E-5
3.70788000E+5	1.36998775E+2	0.00000000E+0	0.00000000E+0	-5.40000000E-13	2.94929000E-8	1.69213000E-5	8.93162595E-5
3.73604000E+5	1.38000183E+2	0.00000000E+0	0.00000000E+0	-3.20000000E-13	2.83733000E-8	1.63289000E-5	8.91144591E-5
3.76412000E+5	1.39000347E+2	0.00000000E+0	0.00000000E+0	-4.40000000E-13	2.72188000E-8	1.57163000E-5	8.92219978E-5
3.79230000E+5	1.39999276E+2	0.00000000E+0	0.00000000E+0	-3.00000000E-13	2.60038000E-8	1.50619000E-5	8.93727141E-5
3.82026000E+5	1.41000130E+2	0.00000000E+0	0.00000000E+0	-2.80000000E-13	2.46994000E-8	1.43465000E-5	8.94116776E-5
3.84813000E+5	1.41998707E+2	0.00000000E+0	0.00000000E+0	-6.50000000E-13	2.33207000E-8	1.35819000E-5	8.93851119E-5
3.87624000E+5	1.43001038E+2	0.00000000E+0	0.00000000E+0	-3.70000000E-13	2.18661000E-8	1.27664000E-5	8.91718971E-5
3.90442000E+5	1.43999666E+2	0.00000000E+0	0.00000000E+0	-3.40000000E-13	2.03698000E-8	1.19266000E-5	8.91973572E-5
3.93238000E+5	1.45000310E+2	0.00000000E+0	0.00000000E+0	-5.40000000E-13	1.88536000E-8	1.10676000E-5	8.93900620E-5
3.96034000E+5	1.46000675E+2	0.00000000E+0	0.00000000E+0	-1.70000000E-13	1.73389000E-8	1.01991000E-5	8.92968463E-5
3.98827000E+5	1.46999608E+2	0.00000000E+0	0.00000000E+0	-5.30000000E-13	1.58715000E-8	9.34860000E-6	8.95853477E-5
4.01620000E+5	1.47999355E+2	0.00000000E+0	0.00000000E+0	-2.40000000E-13	1.44807000E-8	8.53770000E-6	8.93234836E-5
4.04416000E+5	1.49000543E+2	0.00000000E+0	0.00000000E+0	-2.70000000E-13	1.31747000E-8	7.77390000E-6	8.91030179E-5
4.07218000E+5	1.49999407E+2	0.00000000E+0	0.00000000E+0	4.00000000E-14	1.19705000E-8	7.06800000E-6	8.93582838E-5
4.10681000E+5	1.50973835E+2	0.00000000E+0	0.00000000E+0	-3.80000000E-13	1.07976000E-8	6.38290000E-6	8.92474609E-5
4.14176000E+5	1.52017953E+2	0.00000000E+0	0.00000000E+0	-3.70000000E-13	1.00499000E-8	5.94680000E-6	8.94563275E-5
4.17636000E+5	1.53004258E+2	0.00000000E+0	0.00000000E+0	-4.20000000E-13	9.30420000E-9	5.51210000E-6	8.93743473E-5
4.21111000E+5	1.54002733E+2	0.00000000E+0	0.00000000E+0	-2.80000000E-13	8.60890000E-9	5.10600000E-6	8.93376129E-5
4.24583000E+5	1.54999972E+2	0.00000000E+0	0.00000000E+0	-2.90000000E-13	7.96010000E-9	4.72520000E-6	8.91926663E-5
4.28047000E+5	1.55998833E+2	0.00000000E+0	0.00000000E+0	-3.90000000E-13	7.40330000E-9	4.39510000E-6	8.90431898E-5
4.31529000E+5	1.56999762E+2	0.00000000E+0	0.00000000E+0	-3.30000000E-13	6.88960000E-9	4.08970000E-6	8.89434295E-5
4.35051000E+5	1.57998046E+2	0.00000000E+0	0.00000000E+0	-3.60000000E-13	6.44510000E-9	3.82540000E-6	8.93837588E-5
4.38528000E+5	1.59000449E+2	0.00000000E+0	0.00000000E+0	-8.00000000E-14	6.03240000E-9	3.57950000E-6	8.92035859E-5
4.41996000E+5	1.59994510E+2	0.00000000E+0	0.00000000E+0	-3.30000000E-13	5.66710000E-9	3.35690000E-6	8.90276181E-5
4.45497000E+5	1.60992148E+2	0.00000000E+0	0.00000000E+0	-7.00000000E-13	5.39100000E-9	3.18530000E-6	8.91441481E-5
4.48950000E+5	1.62001793E+2	0.00000000E+0	0.00000000E+0	-9.00000000E-14	5.11440000E-9	3.01160000E-6	8.91568201E-5
4.52482000E+5	1.63008315E+2	0.00000000E+0	0.00000000E+0	-4.60000000E-13	4.79650000E-9	2.81320000E-6	8.88535784E-5
4.56021000E+5	1.64001492E+2	0.00000000E+0	0.00000000E+0	-2.80000000E-13	4.45720000E-9	2.62170000E-6	8.93265920E-5
4.59505000E+5	1.65003914E+2	0.00000000E+0	0.00000000E+0	-4.50000000E-13	4.09150000E-9	2.41950000E-6	8.94493478E-5
4.63029000E+5	1.66001688E+2	0.00000000E+0	0.00000000E+0	-3.10000000E-13	3.74280000E-9	2.21570000E-6	8.88614909E-5
4.66506000E+5	1.66998639E+2	0.00000000E+0	0.00000000E+0	-5.90000000E-13	3.43200000E-9	2.03040000E-6	8.92712312E-5
4.69991000E+5	1.67999477E+2	0.00000000E+0	0.00000000E+0	-3.00000000E-13	3.16860000E-9	1.87250000E-6	8.93774288E-5
4.73458000E+5	1.68997954E+2	0.00000000E+0	0.00000000E+0	-5.10000000E-13	2.94170000E-9	1.73530000E-6	8.93749731E-5
4.76908000E+5	1.69997591E+2	0.00000000E+0	0.00000000E+0	-3.90000000E-13	2.74740000E-9	1.61750000E-6	8.93855201E-5
4.80393000E+5	1.70991972E+2	0.00000000E+0	0.00000000E+0	-2.80000000E-13	2.59840000E-9	1.52810000E-6	8.93168824E-5
4.83833000E+5	1.71995182E+2	0.00000000E+0	0.00000000E+0	-2.10000000E-13	2.49230000E-9	1.46540000E-6	8.90373545E-5
4.87307000E+5	1.73007924E+2	0.00000000E+0	0.00000000E+0	-4.20000000E-13	2.37820000E-9	1.39810000E-6	8.92514782E-5
4.90752000E+5	1.74002850E+2	0.00000000E+0	0.00000000E+0	-2.20000000E-13	2.24980000E-9	1.32180000E-6	8.90948789E-5
4.94221000E+5	1.75003810E+2	0.00000000E+0	0.00000000E+0	-1.40000000E-13	2.11500000E-9	1.24100000E-6	8.90736626E-5
4.97750000E+5	1.76001696E+2	0.00000000E+0	0.00000000E+0	-5.00000000E-13	1.98070000E-9	1.16080000E-6	8.89437543E-5
5.01249000E+5	1.76999588E+2	0.00000000E+0	0.00000000E+0	-2.20000000E-13	1.86020000E-9	1.08920000E-6	8.88967113E-5
5.04723000E+5	1.77996637E+2	0.00000000E+0	0.00000000E+0	-6.80000000E-13	1.76240000E-9	1.03140000E-6	8.87312518E-5
5.08175000E+5	1.78998043E+2	0.00000000E+0	0.00000000E+0	-4.60000000E-13	1.68530000E-9	9.86200000E-7	8.89405804E-5
5.11669000E+5	1.79999783E+2	0.00000000E+0	0.00000000E+0	-7.10000000E-13	1.62510000E-9	9.51100000E-7	8.92241048E-5
5.15111000E+5	1.80994569E+2	0.00000000E+0	0.00000000E+0	-3.80000000E-13	1.58130000E-9	9.25700000E-7	8.92019915E-5
5.18579000E+5	1.81992505E+2	0.00000000E+0	0.00000000E+0	-2.20000000E-13	1.55600000E-9	9.10800000E-7	8.91006516E-5
5.22813000E+5	1.83002173E+2	0.00000000E+0	0.00000000E+0	-4.40000000E-13	1.53360000E-9	8.98000000E-7	8.91755508E-5
5.26278000E+5	1.84006444E+2	0.00000000E+0	0.00000000E+0	-5.90000000E-13	1.50240000E-9	8.79900000E-7	8.94600051E-5
5.29779000E+5	1.85003027E+2	0.00000000E+0	0.00000000E+0	1.70000000E-13	1.46780000E-9	8.59700000E-7	8.93374699E-5
5.33275000E+5	1.86003649E+2	0.00000000E+0	0.00000000E+0	-3.60000000E-13	1.43080000E-9	8.38200000E-7	8.92484205E-5
5.36760000E+5	1.87002981E+2	0.00000000E+0	0.00000000E+0	-4.50000000E-13	1.39890000E-9	8.19800000E-7	8.87396710E-5
5.40228000E+5	1.87998483E+2	0.00000000E+0	0.00000000E+0	-1.40000000E-13	1.37430000E-9	8.05500000E-7	8.93017100E-5
5.43684000E+5	1.88993900E+2	0.00000000E+0	0.00000000E+0	-3.50000000E-13	1.35690000E-9	7.95800000E-7	8.91403036E-5
5.47134000E+5	1.90000738E+2	0.00000000E+0	0.00000000E+0	-4.80000000E-13	1.34660000E-9	7.90000000E-7	8.85850863E-5
5.50667000E+5	1.90997700E+2	0.00000000E+0	0.00000000E+0	-4.50000000E-13	1.34110000E-9	7.87100000E-7	8.89567541E-5
5.54141000E+5	1.91992959E+2	0.00000000E+0	0.00000000E+0	-4.00000000E-13	1.34130000E-9	7.87600000E-7	8.92373042E-5
5.57608000E+5	1.92995717E+2	0.00000000E+0	0.00000000E+0	-3.50000000E-13	1.34800000E-9	7.91800000E-7	8.91854303E-5
5.61093000E+5	1.94004978E+2	0.00000000E+0	0.00000000E+0	-4.40000000E-13	1.35000000E-9	7.93500000E-7	8.89993595E-5
5.64621000E+5	1.95003094E+2	0.00000000E+0	0.00000000E+0	-4.80000000E-13	1.34710000E-9	7.92200000E-7	8.88935612E-5
5.68112000E+5	1.96004176E+2	0.00000000E+0	0.00000000E+0	-7.00000000E-14	1.34090000E-9	7.89000000E-7	8.92009484E-5
5.71631000E+5	1.97005828E+2	0.00000000E+0	0.00000000E+0	-3.70000000E-13	1.33260000E-9	7.85000000E-7	8.95350563E-5
5.75134000E+5	1.97998510E+2	0.00000000E+0	0.00000000E+0	-4.10000000E-13	1.32530000E-9	7.81600000E-7	8.92171459E-5
5.78602000E+5	1.98997120E+2	0.00000000E+0	0.00000000E+0	-5.40000000E-13	1.31840000E-9	7.78100000E-7	8.94197302E-5
5.82045000E+5	1.99996537E+2	0.00000000E+0	0.00000000E+0	-3.70000000E-13	1.31350000E-9	7.76400000E-7	8.92234015E-5
5.85576000E+5	2.00996081E+2	0.00000000E+0	0.00000000E+0	-5.20000000E-13	1.31120000E-9	7.76600000E-7	8.96041440E-5
5.89053000E+5	2.01995623E+2	0.00000000E+0	0.00000000E+0	-2.20000000E-13	1.31350000E-9	7.79100000E-7	8.92356353E-5
5.92522000E+5	2.02994623E+2	0.00000000E+0	0.00000000E+0	-4.10000000E-13	1.32350000E-9	7.86100000E-7	8.92579185E-5
5.96012000E+5	2.04001759E+2	0.00000000E+0	0.00000000E+0	-2.40000000E-13	1.33340000E-9	7.93200000E-7	8.94210266E-5
5.99506000E+5	2.05009440E+2	0.00000000E+0	0.00000000E+0	-4.70000000E-13	1.33830000E-9	7.97700000E-7	8.92846572E-5
6.02958000E+5	2.06001691E+2	0.00000000E+0	0.00000000E+0	-1.60000000E-13	1.34320000E-9	8.02000000E-7	8.93349545E-5
6.06466000E+5	2.07004874E+2	0.00000000E+0	0.00000000E+0	-5.80000000E-13	1.34610000E-9	8.05300000E-7	8.87879030E-5
6.09987000E+5	2.08000833E+2	0.00000000E+0	0.00000000E+0	-4.40000000E-13	1.34920000E-9	8.09200000E-7	8.93353062E-5
6.13475000E+5	2.08994867E+2	0.00000000E+0	0.00000000E+0	-2.60000000E-13	1.35400000E-9	8.14300000E-7	8.94989985E-5
6.16943000E+5	2.09999915E+2	0.00000000E+0	0.00000000E+0	-3.70000000E-13	1.36100000E-9	8.20100000E-7	8.94344228E-5
6.20424000E+5	2.10992989E+2	0.00000000E+0	0.00000000E+0	-3.80000000E-13	1.36790000E-9	8.26200000E-7	8.95025271E-5
6.23939000E+5	2.11999207E+2	0.00000000E+0	0.00000000E+0	-2.00000000E-14	1.37560000E-9	8.32700000E-7	8.90715616E-5
6.27405000E+5	2.12994307E+2	0.00000000E+0	0.00000000E+0	-6.50000000E-13	1.38550000E-9	8.40400000E-7	8.93202292E-5
6.30899000E+5	2.13996214E+2	0.00000000E+0	0.00000000E+0	-5.10000000E-13	1.39820000E-9	8.49500000E-7	8.96423149E-5
6.34364000E+5	2.15005728E+2	0.00000000E+0	0.00000000E+0	-1.10000000E-13	1.40550000E-9	8.55800000E-7	8.92373072E-5
6.37859000E+5	2.16008351E+2	0.00000000E+0	0.00000000E+0	-4.80000000E-13	1.40290000E-9	8.56300000E-7	8.89464693E-5
6.41335000E+5	2.17000820E+2	0.00000000E+0	0.00000000E+0	-5.60000000E-13	1.39310000E-9	8.52700000E-7	8.91105460E-5
6.44855000E+5	2.18002521E+2	0.00000000E+0	0.00000000E+0	-1.30000000E-13	1.37910000E-9	8.46400000E-7	8.92731028E-5
6.48345000E+5	2.18996646E+2	0.00000000E+0	0.00000000E+0	-3.80000000E-13	1.36520000E-9	8.40200000E-7	8.90004145E-5
6.51804000E+5	2.20000028E+2	0.00000000E+0	0.00000000E+0	-3.30000000E-13	1.35380000E-9	8.35300000E-7	8.89819519E-5
6.55298000E+5	2.20998102E+2	0.00000000E+0	0.00000000E+0	-5.10000000E-13	1.34360000E-9	8.31000000E-7	8.92777907E-5
6.58773000E+5	2.21996874E+2	0.00000000E+0	0.00000000E+0	-4.90000000E-13	1.33650000E-9	8.28600000E-7	8.90190141E-5
6.62254000E+5	2.22994839E+2	0.00000000E+0	0.00000000E+0	-1.60000000E-13	1.33590000E-9	8.30000000E-7	8.92583536E-5
6.65723000E+5	2.23989974E+2	0.00000000E+0	0.00000000E+0	-2.50000000E-13	1.34260000E-9	8.35600000E-7	8.92205524E-5
6.69225000E+5	2.25007324E+2	0.00000000E+0	0.00000000E+0	-4.20000000E-13	1.34680000E-9	8.39900000E-7	8.93193113E-5
6.72698000E+5	2.26002362E+2	0.00000000E+0	0.00000000E+0	-4.70000000E-13	1.34630000E-9	8.41600000E-7	8.90661793E-5
6.76218000E+5	2.27007515E+2	0.00000000E+0	0.00000000E+0	-1.40000000E-13	1.34110000E-9	8.40900000E-7	8.89724241E-5
6.79696000E+5	2.28007425E+2	0.00000000E+0	0.00000000E+0	-3.80000000E-13	1.33660000E-9	8.40600000E-7	8.91796278E-5
6.83139000E+5	2.28996777E+2	0.00000000E+0	0.00000000E+0	-2.00000000E-13	1.33410000E-9	8.41700000E-7	8.93231588E-5
6.86644000E+5	2.29997523E+2	0.00000000E+0	0.00000000E+0	-4.30000000E-13	1.33570000E-9	8.45400000E-7	8.94623058E-5
6.90093000E+5	2.30996459E+2	0.00000000E+0	0.00000000E+0	-3.90000000E-13	1.34180000E-9	8.51600000E-7	8.89356242E-5
6.93590000E+5	2.31998492E+2	0.00000000E+0	0.00000000E+0	-1.30000000E-13	1.35190000E-9	8.60400000E-7	8.93461632E-5
6.97864000E+5	2.32993928E+2	0.00000000E+0	0.00000000E+0	-7.40000000E-13	1.36860000E-9	8.73200000E-7	8.90813636E-5
7.01358000E+5	2.33993733E+2	0.00000000E+0	0.00000000E+0	-2.60000000E-13	1.39200000E-9	8.89700000E-7	8.90946971E-5
7.04811000E+5	2.35000525E+2	0.00000000E+0	0.00000000E+0	-4.30000000E-13	1.41580000E-9	9.06400000E-7	8.91433286E-5
7.08307000E+5	2.36005291E+2	0.00000000E+0	0.00000000E+0	-2.90000000E-13	1.43580000E-9	9.21600000E-7	8.94475924E-5
7.11783000E+5	2.37008714E+2	0.00000000E+0	0.00000000E+0	-3.20000000E-13	1.45320000E-9	9.36000000E-7	8.92296450E-5
7.15262000E+5	2.38007410E+2	0.00000000E+0	0.00000000E+0	-1.60000000E-13	1.46990000E-9	9.50300000E-7	8.88967560E-5
7.18752000E+5	2.38998413E+2	0.00000000E+0	0.00000000E+0	-4.10000000E-13	1.48810000E-9	9.65200000E-7	8.90726672E-5
7.22255000E+5	2.39997777E+2	0.00000000E+0	0.00000000E+0	-5.10000000E-13	1.50900000E-9	9.81700000E-7	8.94997405E-5
7.25754000E+5	2.40998451E+2	0.00000000E+0	0.00000000E+0	-7.70000000E-13	1.53260000E-9	9.99900000E-7	8.90820580E-5
7.29235000E+5	2.41991699E+2	0.00000000E+0	0.00000000E+0	-3.30000000E-13	1.55840000E-9	1.01930000E-6	8.87176202E-5
7.32757000E+5	2.42998653E+2	0.00000000E+0	0.00000000E+0	-4.10000000E-13	1.58650000E-9	1.04020000E-6	8.89241146E-5
7.36249000E+5	2.43992241E+2	0.00000000E+0	0.00000000E+0	-1.80000000E-13	1.61820000E-9	1.06300000E-6	8.86432217E-5
7.39749000E+5	2.44999959E+2	0.00000000E+0	0.00000000E+0	-2.80000000E-13	1.65190000E-9	1.08680000E-6	8.91485052E-5
7.43204000E+5	2.46003436E+2	0.00000000E+0	0.00000000E+0	-2.50000000E-13	1.68390000E-9	1.10990000E-6	8.90776115E-5
7.46666000E+5	2.47005510E+2	0.00000000E+0	0.00000000E+0	-4.10000000E-13	1.71320000E-9	1.13150000E-6	8.87145059E-5
7.50164000E+5	2.48005412E+2	0.00000000E+0	0.00000000E+0	-8.00000000E-14	1.73950000E-9	1.15140000E-6	8.90493767E-5
7.53663000E+5	2.48999577E+2	0.00000000E+0	0.00000000E+0	-5.10000000E-13	1.76410000E-9	1.16990000E-6	8.90696870E-5
7.57144000E+5	2.49999028E+2	0.00000000E+0	0.00000000E+0	-3.90000000E-13	1.78880000E-9	1.18820000E-6	8.89055775E-5
7.60025000E+5	2.50996778E+2	0.00000000E+0	0.00000000E+0	-8.00000000E-14	1.78500000E-9	1.18700000E-6	8.92513560E-5
7.62952000E+5	2.52000684E+2	0.00000000E+0	0.00000000E+0	-3.50000000E-13	1.78040000E-9	1.18500000E-6	8.93990891E-5
7.65873000E+5	2.52996977E+2	0.00000000E+0	0.00000000E+0	-6.70000000E-13	1.77490000E-9	1.18220000E-6	8.88536053E-5
7.68778000E+5	2.54000114E+2	0.00000000E+0	0.00000000E+0	-2.60000000E-13	1.76910000E-9	1.17860000E-6	8.87963580E-5
7.71680000E+5	2.54998826E+2	0.00000000E+0	0.00000000E+0	-3.00000000E-13	1.76280000E-9	1.17440000E-6	8.91505854E-5
7.74573000E+5	2.55994740E+2	0.00000000E+0	0.00000000E+0	-4.10000000E-13	1.75610000E-9	1.16940000E-6	8.90416311E-5
7.77466000E+5	2.57001579E+2	0.00000000E+0	0.00000000E+0	-5.30000000E-13	1.74910000E-9	1.16390000E-6	8.90640395E-5
7.80400000E+5	2.58000679E+2	0.00000000E+0	0.00000000E+0	-3.60000000E-13	1.74170000E-9	1.15780000E-6	8.91976820E-5
7.83320000E+5	2.59001053E+2	0.00000000E+0	0.00000000E+0	-3.10000000E-13	1.73600000E-9	1.15240000E-6	8.89792340E-5
7.86229000E+5	2.59997951E+2	0.00000000E+0	0.00000000E+0	-2.60000000E-13	1.73230000E-9	1.14790000E-6	8.90109258E-5
