G:\BEAR_storage\User_Experiments\20220317_arneodo\file(1)0044.txt
Ring Energy (GeV): 2
Lifetime (hours): 16.0225
Scan beginning: 3/18/2022	9:32:40 PM
Ring current (mA): 279.83
Source position: x (mm): -0.003 x' (mrad): 0.005 y (mm): 0.003 y' (mrad): -0.003
Scan end: 3/18/2022	9:52:19 PM
Ring current (mA): 274.21
Source position: x (mm): -0.003 x' (mrad): 0.005 y (mm): 0.006 y' (mrad): -0.002

SCAN TYPE: PHOTON ENERGY VS VAR_1 VS VAR_2

FILE INFO: FILE INFO:

SCAN PARAMETERS
waiting time (ms): 0
Number of scans: 1
Current scan number: 1
DARK OFF 
PREDARK OFF 

SCAN PARAMETERS
Regions configuration: 
number of regions: 7
Mirror grating scan: on
Timed acquisition: off
Region 1:
Initial energy (eV): 40.000000
Final energy (eV): 72.000000
Delta energy (eV): 1.000000
Deviation angle choice: Higher order rejection
Deviation angle (°): NaN
Al filter
G1200 channel
range keithley B 20 nA
range keithley C 2 uA
range keithley A 2 uA
Var_1: PsiC 0.000000
Var_2: PhiM0.000000
Bias CEM (V): 0.000000
Bias Keithley B (V): -30.000000
Name region: 
Region 2:
Initial energy (eV): 70.000000
Final energy (eV): 102.000000
Delta energy (eV): 1.000000
Deviation angle choice: Higher order rejection
Deviation angle (°): NaN
Si filter
G1200 channel
range keithley B 20 nA
range keithley C 2 uA
range keithley A 20 nA
Var_1: PsiC 0.000000
Var_2: PhiM0.000000
Bias CEM (V): 0.000000
Bias Keithley B (V): -30.000000
Name region: 
Region 3:
Initial energy (eV): 98.000000
Final energy (eV): 260.000000
Delta energy (eV): 1.000000
Deviation angle choice: Higher order rejection
Deviation angle (°): NaN
Full Beam
G1200 channel
range keithley B 20 nA
range keithley C 20 uA
range keithley A 200 nA
Var_1: PsiC 0.000000
Var_2: PhiM0.000000
Bias CEM (V): 0.000000
Bias Keithley B (V): -30.000000
Name region: 
Region 4:
Initial energy (eV): 255.000000
Final energy (eV): 320.000000
Delta energy (eV): 1.000000
Deviation angle choice: Higher order rejection
Deviation angle (°): NaN
filter Ag 0.6 um
G1200 channel
range keithley B 200 pA
range keithley C 2 uA
range keithley A 200 pA
Var_1: PsiC 0.000000
Var_2: PhiM0.000000
Bias CEM (V): 0.000000
Bias Keithley B (V): -30.000000
Name region: 
Region 5:
Initial energy (eV): 255.000000
Final energy (eV): 320.000000
Delta energy (eV): 1.000000
Deviation angle choice: Higher order rejection
Deviation angle (°): NaN
Full Beam
G1200 channel
range keithley B 200 pA
range keithley C 2 uA
range keithley A 200 pA
Var_1: PsiC 0.000000
Var_2: PhiM0.000000
Bias CEM (V): 0.000000
Bias Keithley B (V): -30.000000
Name region: 
Region 6:
Initial energy (eV): 315.000000
Final energy (eV): 1200.000000
Delta energy (eV): 5.000000
Deviation angle choice: Higher order rejection
Deviation angle (°): NaN
Full Beam
G1200 channel
range keithley B 20 nA
range keithley C 2 uA
range keithley A 20 nA
Var_1: PsiC 0.000000
Var_2: PhiM0.000000
Bias CEM (V): 0.000000
Bias Keithley B (V): -30.000000
Name region: 
Region 7:
Initial energy (eV): 1190.000000
Final energy (eV): 1500.000000
Delta energy (eV): 5.000000
Deviation angle choice: Higher order rejection
Deviation angle (°): NaN
filter Ag 0.6 um
G1200 channel
range keithley B 200 pA
range keithley C 2 uA
range keithley A 200 pA
Var_1: PsiC 0.000000
Var_2: PhiM0.000000
Bias CEM (V): 0.000000
Bias Keithley B (V): -30.000000
Name region: 

BEAR MONOCHROMATOR CONFIGURATION: 
Current Grating Position:     -144940.60
Current Mirror Position: 2556.9
Current Grating: G1200
P2 phiz position:  0.0000
Mono axis position: 25.0000
Current Photon Energy (eV): 142.000
Current Deviation Angle: 155.000
Vertical Exit Slits (um): 450.000
Exit slit y axis position: 2.2375
Horizontal Exit Slits (um):  889.156
Exit slit z axis position: 1.9229
Mitutoyo position (mm): 

Dose on sample (mJ/cm^2): NaN

ENERGY CALIBRATION:
offset grating G1200: yes
Delta 0 order G1200:  -800.0
offset grating G1800: not
Delta 0 order G1800:  0.0
offset grating GNIM: not
Delta 0 order GNIM:  0.0
ZERO ORDER POSITIONS:
Grating G1200: Mirror position:  4938.0
Grating position: -105355.0
Grating G1800: 
Mirror position:  4938.0
Grating position: -106345.0
Grating GNIM: 
Mirror position:  10000.0
Grating position: 227300.0

Initial filter: Full Beam

EXPERIMENTAL CHAMBER CONFIGURATION: 
PsiC (deg):   -0.000186
Phi Analyzer (degrees): 89.992308
Theta Manipulator (degrees): -44.000040
Theta Analyzer (degrees): -135.001468
PhiM (degrees): -0.004103
XM (mm): 0.000713
YM (mm): 19.932987
ZM (mm): (Warning: for kinetic energy scans, 
this parameter is given in the scan settings) 
-6.601438
TiltM (°): 0.000138

ELECTRON ANALYZER CONFIGURATION: 
Current Kinetik energy (eV): 35.0
Mode: DE = COST
Pass Energy (eV):  50.000
CEM: ON
Bias Front-Back CEM (V): 3499.561
Bias Back-Collector CEM (V): 100.874
Bias Retard-Front CEM: 100.087COIL VALUES
Ix (amps):2.820
Iy (amps): 6.789
Iz (amps): 37.337

POLARIZATION SELECTOR CONFIGURATION:
Psi1 (rad): -0.001665535
Psi2 (rad): 0.001417093
Z min position (mm): 46.599650
DZ position (mm): 18.599100
Zmin 0 (mm): 66.500000
DZ0 (mm): 53.000000

BEAM SELECTOR CONFIGURATION:
Zmin position (mm): NaN
DZ position (mm): NaN
Y+ position (mm): NaN
Y- position (mm): NaN

CHANNEL ELECTRON MULTIPLIER CONFIGURATION:
CEM configured: OFF
Bias CEM: 0.000000

FLUORESCENCE DETECTOR CONFIGURATION:
Not configured

LUMINESCENCE MONOCHROMATOR CONFIGURATION:
Optical fiber position (mm): 0.000000
Optical fiber Switch inside: OFF
Optical fiber Switch outside: ON
Monochromator wavelength (A): 0.000000
Limit Switches: ON

I0 MONITOR PARAMETERS:
I0 detector position(mm): -0.000000E+0
Lower switch: OFF
Upper switch: OFF
Valve status:open

PRESSURE PARAMETERS:
Monitor chamber pressure (mbar): 9.024e-10
Experimental chamber pressure -ION GAUGE-(mbar): 0.000000E+0

XMCD PARAMETERS:
Xmcd OFF
Xmcd Direction -
Xmcd current (A): 0.000000

Gated scan off

Instrument 1: AMMETER KEITHLEY 6517A B
Measure type: Current
range type: set range value
range value (ampere):  200 pA
Integration time:  set NPLC value
NPLC value: 10.000
Digital filter count: 2
SAMPLE BIAS (V): -30.000
Vsource: ON
Output Voltage value: 30.000
Vsource range: 1000 V

Range Keithley B changed to 20 nA

Range Keithley B changed to 200 pA

Range Keithley B changed to 20 nA

Range Keithley B changed to 200 pA

Range Keithley B changed to 20 nA

Range Keithley B changed to 200 pA

Range Keithley B changed to 20 nA

Range Keithley B changed to 200 nA

Range Keithley B changed to 200 pA

Range Keithley B changed to 20 nA

Range Keithley B changed to 200 pA

Range Keithley B changed to 20 nA

Range Keithley B changed to 200 pA

Range Keithley B changed to 20 nA

Range Keithley B changed to 200 pA

Range Keithley B changed to 20 nA

Range Keithley B changed to 200 pA

Range Keithley B changed to 20 nA

Range Keithley B changed to 200 pA

Range Keithley B changed to 20 nA

Range Keithley B changed to 200 pA

Instrument 2: AMMETER KEITHLEY 6517A A
Measure type: Current
range type: set range value
range value (ampere):  200 nA
Integration time:  set NPLC value
NPLC value: 10.000
Digital filter count: 2
Vsource: OFF
Output Voltage value: -0.000
Vsource range: 100 V
Trigger source: bus

Range Keithley A changed to 20 nA

Range Keithley A changed to 200 nA

Range Keithley A changed to 200 pA

Range Keithley A changed to 20 nA

Range Keithley A changed to 200 pA

Range Keithley A changed to 20 nA

Range Keithley A changed to 200 nA

Range Keithley A changed to 200 pA

Range Keithley A changed to 20 nA

Range Keithley A changed to 200 pA

Range Keithley A changed to 20 nA

Range Keithley A changed to 200 nA

Range Keithley A changed to 200 pA

Range Keithley A changed to 20 nA

Range Keithley A changed to 200 pA

Range Keithley A changed to 20 nA

Range Keithley A changed to 200 pA

Range Keithley A changed to 20 nA

Range Keithley A changed to 200 pA

Range Keithley A changed to 20 nA

Range Keithley A changed to 200 pA

Range Keithley A changed to 20 nA

Range Keithley A changed to 200 nA

Range Keithley A changed to 200 pA

Range Keithley A changed to 20 nA

Range Keithley A changed to 200 pA

Range Keithley A changed to 20 nA

Range Keithley A changed to 200 nA

Range Keithley A changed to 200 pA

Range Keithley A changed to 20 nA

Range Keithley A changed to 200 nA

Range Keithley A changed to 200 pA

Range Keithley A changed to 20 nA

Range Keithley A changed to 200 pA

Range Keithley A changed to 20 nA

Range Keithley A changed to 200 pA

Range Keithley A changed to 20 nA

Range Keithley A changed to 200 nA

Range Keithley A changed to 200 pA

Range Keithley A changed to 20 nA

Range Keithley A changed to 200 pA

Range Keithley A changed to 20 nA

Range Keithley A changed to 200 nA

Range Keithley A changed to 20 nA

Range Keithley A changed to 200 nA

Range Keithley A changed to 200 pA

Range Keithley A changed to 20 nA

Range Keithley A changed to 200 nA

Range Keithley A changed to 2 uA

Range Keithley A changed to 20 nA

Range Keithley A changed to 200 nA

Range Keithley A changed to 2 uA

Range Keithley A changed to 20 nA

Range Keithley A changed to 200 nA

Range Keithley A changed to 200 pA

Instrument 3: AMMETER KEITHLEY 6517A C 
Measure type: Current
range type: set range value
range value (ampere):  2 uA
Integration time:  set NPLC value
NPLC value: 10.000
Digital filter count: 2
Vsource: OFF
Output Voltage value: -0.000
Vsource range: 100 V
Trigger source: bus


Range Keithley C changed to 20 uA


Range Keithley C changed to 2 uA


________________________________________________________________________________

RelativeTime (msec)	Photon Energy	Var_1	Var_2	INSTR_1_Sample with Bias _(ampere ) 	INSTR_2_Monitor IM_(ampere)  	INSTR_3_Diode A3_(ampere)	I_BPM_sum (Amps)	
________________________________________________________________________________

5.00200000E+3	3.99998128E+1	0.00000000E+0	0.00000000E+0	-5.40000000E-13	2.87000000E-10	5.34750000E-8	8.15336801E-5
1.02330000E+4	4.09997508E+1	0.00000000E+0	0.00000000E+0	-6.80000000E-13	3.41000000E-10	6.08270000E-8	8.14117558E-5
1.43810000E+4	4.19999914E+1	0.00000000E+0	0.00000000E+0	-3.80000000E-13	3.64000000E-10	6.84740000E-8	8.13344009E-5
1.85880000E+4	4.30001101E+1	0.00000000E+0	0.00000000E+0	-1.00000000E-13	3.95000000E-10	7.71710000E-8	8.13502647E-5
2.27740000E+4	4.39999194E+1	0.00000000E+0	0.00000000E+0	-4.70000000E-13	4.17000000E-10	8.63100000E-8	8.12978216E-5
2.69580000E+4	4.49999541E+1	0.00000000E+0	0.00000000E+0	-4.80000000E-13	4.39000000E-10	9.61920000E-8	8.14975001E-5
3.09740000E+4	4.59999233E+1	0.00000000E+0	0.00000000E+0	-5.60000000E-13	4.77000000E-10	1.07582000E-7	8.10362704E-5
3.50550000E+4	4.70000736E+1	0.00000000E+0	0.00000000E+0	-4.30000000E-13	5.14000000E-10	1.19991000E-7	8.11060168E-5
3.90670000E+4	4.79999202E+1	0.00000000E+0	0.00000000E+0	-4.00000000E-13	5.42000000E-10	1.30764000E-7	8.15051683E-5
4.29890000E+4	4.89999023E+1	0.00000000E+0	0.00000000E+0	-1.70000000E-13	5.59000000E-10	1.36491000E-7	8.17180314E-5
4.69440000E+4	4.99999350E+1	0.00000000E+0	0.00000000E+0	-3.30000000E-13	5.52000000E-10	1.34132000E-7	8.13307978E-5
5.10090000E+4	5.10000363E+1	0.00000000E+0	0.00000000E+0	-3.60000000E-13	5.28000000E-10	1.27418000E-7	8.14170607E-5
5.49480000E+4	5.19999552E+1	0.00000000E+0	0.00000000E+0	-2.80000000E-13	5.37000000E-10	1.32218000E-7	8.13654103E-5
5.87310000E+4	5.29997070E+1	0.00000000E+0	0.00000000E+0	-4.30000000E-13	5.92000000E-10	1.54719000E-7	8.10112633E-5
6.26920000E+4	5.40001858E+1	0.00000000E+0	0.00000000E+0	-4.10000000E-13	6.68000000E-10	1.85204000E-7	8.12071927E-5
6.65400000E+4	5.50000322E+1	0.00000000E+0	0.00000000E+0	-3.80000000E-13	7.49000000E-10	2.17409000E-7	8.14066805E-5
7.04320000E+4	5.59998818E+1	0.00000000E+0	0.00000000E+0	-3.10000000E-13	8.27000000E-10	2.51449000E-7	8.12388934E-5
7.42410000E+4	5.69999203E+1	0.00000000E+0	0.00000000E+0	-4.10000000E-13	9.14000000E-10	2.87658000E-7	8.13763477E-5
7.81440000E+4	5.79999762E+1	0.00000000E+0	0.00000000E+0	-5.00000000E-14	1.00600000E-9	3.27571000E-7	8.16113569E-5
8.20630000E+4	5.89999379E+1	0.00000000E+0	0.00000000E+0	-2.60000000E-13	1.11400000E-9	3.73555000E-7	8.12795080E-5
8.58450000E+4	5.99999592E+1	0.00000000E+0	0.00000000E+0	-4.70000000E-13	1.22900000E-9	4.24798000E-7	8.12643267E-5
8.95280000E+4	6.09999996E+1	0.00000000E+0	0.00000000E+0	-3.70000000E-13	1.33300000E-9	4.78028000E-7	8.12402733E-5
9.33140000E+4	6.19997761E+1	0.00000000E+0	0.00000000E+0	-3.30000000E-13	1.46000000E-9	5.31919000E-7	8.10728974E-5
9.70230000E+4	6.29998944E+1	0.00000000E+0	0.00000000E+0	-3.00000000E-13	1.56700000E-9	5.84250000E-7	8.11106957E-5
1.00838000E+5	6.40001187E+1	0.00000000E+0	0.00000000E+0	-5.50000000E-13	1.66600000E-9	6.32011000E-7	8.12164642E-5
1.04528000E+5	6.49998129E+1	0.00000000E+0	0.00000000E+0	-2.30000000E-13	1.74600000E-9	6.73343000E-7	8.16228696E-5
1.08194000E+5	6.59998549E+1	0.00000000E+0	0.00000000E+0	-3.70000000E-13	1.81100000E-9	7.06173000E-7	8.11084635E-5
1.11691000E+5	6.70000153E+1	0.00000000E+0	0.00000000E+0	-3.60000000E-13	1.85300000E-9	7.32780000E-7	8.13919671E-5
1.15327000E+5	6.80002341E+1	0.00000000E+0	0.00000000E+0	-3.70000000E-13	1.90400000E-9	7.65569000E-7	8.11226018E-5
1.19101000E+5	6.89997959E+1	0.00000000E+0	0.00000000E+0	-7.50000000E-13	1.99500000E-9	8.16622000E-7	8.10429163E-5
1.22675000E+5	6.99998166E+1	0.00000000E+0	0.00000000E+0	-4.20000000E-13	2.11500000E-9	8.84729000E-7	8.12692322E-5
1.26242000E+5	7.10001500E+1	0.00000000E+0	0.00000000E+0	-5.00000000E-13	2.23000000E-9	9.40765000E-7	8.14837106E-5
1.29831000E+5	7.20000218E+1	0.00000000E+0	0.00000000E+0	-1.40000000E-13	1.87000000E-9	7.86857000E-7	8.12520452E-5
1.41603000E+5	7.00008787E+1	0.00000000E+0	0.00000000E+0	-3.70000000E-13	9.21800000E-10	4.10746000E-7	8.10752995E-5
1.45931000E+5	7.09990405E+1	0.00000000E+0	0.00000000E+0	-2.50000000E-13	9.93140000E-10	4.46946000E-7	8.15723934E-5
1.49361000E+5	7.19998175E+1	0.00000000E+0	0.00000000E+0	-5.50000000E-13	8.43750000E-10	3.83782000E-7	8.13825764E-5
1.52928000E+5	7.30002165E+1	0.00000000E+0	0.00000000E+0	-3.70000000E-13	1.09447000E-9	5.08244000E-7	8.15730609E-5
1.56576000E+5	7.39998770E+1	0.00000000E+0	0.00000000E+0	-5.20000000E-13	1.24718000E-9	5.87892000E-7	8.12504657E-5
1.60045000E+5	7.49995755E+1	0.00000000E+0	0.00000000E+0	-2.90000000E-13	1.26995000E-9	6.04151000E-7	8.12961675E-5
1.63482000E+5	7.60003534E+1	0.00000000E+0	0.00000000E+0	-5.70000000E-13	1.44102000E-9	6.97541000E-7	8.09463210E-5
1.66964000E+5	7.69999167E+1	0.00000000E+0	0.00000000E+0	-6.10000000E-13	1.61899000E-9	7.93437000E-7	8.15658100E-5
1.70338000E+5	7.80000988E+1	0.00000000E+0	0.00000000E+0	-8.10000000E-13	1.75932000E-9	8.72446000E-7	8.15940716E-5
1.73828000E+5	7.90000333E+1	0.00000000E+0	0.00000000E+0	-5.70000000E-13	1.91222000E-9	9.60039000E-7	8.11658449E-5
1.77214000E+5	7.99998419E+1	0.00000000E+0	0.00000000E+0	-5.30000000E-13	2.06936000E-9	1.05058100E-6	8.13724734E-5
1.80595000E+5	8.09998974E+1	0.00000000E+0	0.00000000E+0	-5.40000000E-13	2.22241000E-9	1.14063800E-6	8.15298297E-5
1.84030000E+5	8.20000904E+1	0.00000000E+0	0.00000000E+0	-2.80000000E-13	2.37151000E-9	1.23046100E-6	8.14610310E-5
1.87559000E+5	8.29996647E+1	0.00000000E+0	0.00000000E+0	-4.40000000E-13	2.54374000E-9	1.33399200E-6	8.12498786E-5
1.90846000E+5	8.39992736E+1	0.00000000E+0	0.00000000E+0	-4.00000000E-13	2.73989000E-9	1.45164300E-6	8.09388555E-5
1.94196000E+5	8.50003255E+1	0.00000000E+0	0.00000000E+0	-6.20000000E-13	2.94316000E-9	1.57454200E-6	8.14192392E-5
1.97669000E+5	8.60003041E+1	0.00000000E+0	0.00000000E+0	-6.00000000E-14	3.15297000E-9	1.70257100E-6	8.13671507E-5
2.01116000E+5	8.69997731E+1	0.00000000E+0	0.00000000E+0	-5.10000000E-13	3.37848000E-9	1.84035700E-6	8.15956094E-5
2.05161000E+5	8.80000031E+1	0.00000000E+0	0.00000000E+0	-5.20000000E-13	3.60305000E-9	1.97882800E-6	8.09175767E-5
2.08621000E+5	8.89999245E+1	0.00000000E+0	0.00000000E+0	-3.60000000E-13	3.83692000E-9	9.90000000E+37	8.10242451E-5
2.12028000E+5	9.00000001E+1	0.00000000E+0	0.00000000E+0	-1.80000000E-13	4.11648000E-9	9.90000000E+37	8.12941589E-5
2.15312000E+5	9.09994841E+1	0.00000000E+0	0.00000000E+0	-3.00000000E-13	4.42804000E-9	9.90000000E+37	8.12951095E-5
2.18557000E+5	9.20005264E+1	0.00000000E+0	0.00000000E+0	-3.50000000E-13	4.73002000E-9	9.90000000E+37	8.13595452E-5
2.21818000E+5	9.29999900E+1	0.00000000E+0	0.00000000E+0	-5.20000000E-13	5.03260000E-9	9.90000000E+37	8.15693237E-5
2.25147000E+5	9.39999684E+1	0.00000000E+0	0.00000000E+0	-1.00000000E-13	5.37916000E-9	9.90000000E+37	8.10168571E-5
2.28476000E+5	9.50000203E+1	0.00000000E+0	0.00000000E+0	-3.50000000E-13	5.72589000E-9	9.90000000E+37	8.14943739E-5
2.31838000E+5	9.59994003E+1	0.00000000E+0	0.00000000E+0	-4.40000000E-13	6.02807000E-9	9.90000000E+37	8.13455947E-5
2.35051000E+5	9.69994460E+1	0.00000000E+0	0.00000000E+0	-2.60000000E-13	6.31496000E-9	9.90000000E+37	8.11318345E-5
2.38296000E+5	9.80008419E+1	0.00000000E+0	0.00000000E+0	-5.00000000E-13	6.60605000E-9	9.90000000E+37	8.13066699E-5
2.41530000E+5	9.89997921E+1	0.00000000E+0	0.00000000E+0	-1.90000000E-13	6.87616000E-9	9.90000000E+37	8.13267596E-5
2.44806000E+5	1.00000181E+2	0.00000000E+0	0.00000000E+0	-3.90000000E-13	7.07611000E-9	9.90000000E+37	8.13695260E-5
2.48111000E+5	1.00999681E+2	0.00000000E+0	0.00000000E+0	-1.50000000E-13	6.83192000E-9	9.90000000E+37	8.11542846E-5
2.51376000E+5	1.02000088E+2	0.00000000E+0	0.00000000E+0	-5.90000000E-13	1.27750000E-10	7.78220000E-8	8.11871923E-5
2.61380000E+5	9.80010492E+1	0.00000000E+0	0.00000000E+0	-1.20000000E-13	1.74765000E-8	1.03102600E-5	8.13532718E-5
2.65319000E+5	9.89982471E+1	0.00000000E+0	0.00000000E+0	-5.40000000E-13	1.81410000E-8	1.07689600E-5	8.10570545E-5
2.68445000E+5	9.99999835E+1	0.00000000E+0	0.00000000E+0	-4.60000000E-13	1.87493000E-8	1.11806800E-5	8.14983107E-5
2.71625000E+5	1.00999681E+2	0.00000000E+0	0.00000000E+0	-3.90000000E-13	1.92973000E-8	1.15527600E-5	8.13815333E-5
2.74808000E+5	1.02000293E+2	0.00000000E+0	0.00000000E+0	-4.50000000E-13	1.99258000E-8	1.17841600E-5	8.11633117E-5
2.78096000E+5	1.03000211E+2	0.00000000E+0	0.00000000E+0	-3.70000000E-13	2.06951000E-8	1.20654300E-5	8.11986037E-5
2.81232000E+5	1.03999909E+2	0.00000000E+0	0.00000000E+0	-3.50000000E-13	2.14994000E-8	1.25971800E-5	8.12525846E-5
2.84395000E+5	1.04999664E+2	0.00000000E+0	0.00000000E+0	-5.30000000E-13	2.23197000E-8	1.31503300E-5	8.11526604E-5
2.87589000E+5	1.05999763E+2	0.00000000E+0	0.00000000E+0	7.00000000E-14	2.32367000E-8	1.38382000E-5	8.13887336E-5
2.90759000E+5	1.07000350E+2	0.00000000E+0	0.00000000E+0	-5.10000000E-13	2.42760000E-8	1.43368900E-5	8.12000997E-5
2.93989000E+5	1.07999814E+2	0.00000000E+0	0.00000000E+0	-3.20000000E-13	2.53698000E-8	1.46541400E-5	8.09021987E-5
2.97037000E+5	1.08999141E+2	0.00000000E+0	0.00000000E+0	-2.70000000E-13	2.62861000E-8	1.51535000E-5	8.11793990E-5
3.00047000E+5	1.10000440E+2	0.00000000E+0	0.00000000E+0	-1.60000000E-13	2.73366000E-8	1.53805000E-5	8.09332616E-5
3.03043000E+5	1.10999684E+2	0.00000000E+0	0.00000000E+0	-3.30000000E-13	2.81969000E-8	1.61130000E-5	8.16259750E-5
3.06071000E+5	1.11999165E+2	0.00000000E+0	0.00000000E+0	-4.80000000E-13	2.90232000E-8	1.69264700E-5	8.11103262E-5
3.09105000E+5	1.13000217E+2	0.00000000E+0	0.00000000E+0	-5.20000000E-13	2.98716000E-8	1.74624500E-5	8.10105659E-5
3.12179000E+5	1.13999860E+2	0.00000000E+0	0.00000000E+0	-2.30000000E-13	3.06814000E-8	1.79194100E-5	8.13122071E-5
3.15256000E+5	1.15000145E+2	0.00000000E+0	0.00000000E+0	-6.70000000E-13	3.14337000E-8	1.83445900E-5	8.07830698E-5
3.18310000E+5	1.16000105E+2	0.00000000E+0	0.00000000E+0	-5.30000000E-13	3.21467000E-8	1.86968800E-5	8.10862131E-5
3.21328000E+5	1.16999550E+2	0.00000000E+0	0.00000000E+0	-3.30000000E-13	3.28020000E-8	1.89957400E-5	8.11527528E-5
3.24376000E+5	1.17999866E+2	0.00000000E+0	0.00000000E+0	-4.70000000E-13	3.33198000E-8	1.93031600E-5	8.09819199E-5
3.27444000E+5	1.18999870E+2	0.00000000E+0	0.00000000E+0	-3.20000000E-13	3.36589000E-8	1.95792400E-5	8.09857048E-5
3.30438000E+5	1.19999940E+2	0.00000000E+0	0.00000000E+0	-5.50000000E-13	3.38512000E-8	1.97813200E-5	8.08502770E-5
3.33447000E+5	1.21000498E+2	0.00000000E+0	0.00000000E+0	-4.40000000E-13	3.39565000E-8	1.99116800E-5	8.10191340E-5
3.36505000E+5	1.21999435E+2	0.00000000E+0	0.00000000E+0	-2.40000000E-13	3.40085000E-8	1.99774400E-5	8.10062892E-5
3.39595000E+5	1.22999780E+2	0.00000000E+0	0.00000000E+0	-3.70000000E-13	3.39951000E-8	1.99699200E-5	8.11629720E-5
3.42582000E+5	1.23999998E+2	0.00000000E+0	0.00000000E+0	-1.50000000E-13	3.39054000E-8	1.98852500E-5	8.11868109E-5
3.45672000E+5	1.25000297E+2	0.00000000E+0	0.00000000E+0	-9.00000000E-14	3.37520000E-8	1.97390400E-5	8.11056651E-5
3.48655000E+5	1.25999656E+2	0.00000000E+0	0.00000000E+0	-2.10000000E-13	3.35398000E-8	1.95442000E-5	8.11585791E-5
3.51809000E+5	1.26999867E+2	0.00000000E+0	0.00000000E+0	-5.00000000E-13	3.32517000E-8	1.93000500E-5	8.12620588E-5
3.54821000E+5	1.27999939E+2	0.00000000E+0	0.00000000E+0	-2.10000000E-13	3.28787000E-8	1.90141900E-5	8.10584493E-5
3.57773000E+5	1.28999817E+2	0.00000000E+0	0.00000000E+0	-3.60000000E-13	3.24323000E-8	1.87010300E-5	8.09033401E-5
3.60889000E+5	1.30000451E+2	0.00000000E+0	0.00000000E+0	-4.40000000E-13	3.19191000E-8	1.83663400E-5	8.09804268E-5
3.63747000E+5	1.30999144E+2	0.00000000E+0	0.00000000E+0	-3.90000000E-13	3.13363000E-8	1.80065500E-5	8.10667611E-5
3.66610000E+5	1.31999564E+2	0.00000000E+0	0.00000000E+0	-6.50000000E-13	3.06716000E-8	1.76142700E-5	8.09702731E-5
3.70281000E+5	1.33000044E+2	0.00000000E+0	0.00000000E+0	-5.10000000E-13	2.99254000E-8	1.71900500E-5	8.09716142E-5
3.73258000E+5	1.33999881E+2	0.00000000E+0	0.00000000E+0	-3.10000000E-13	2.90974000E-8	1.67306400E-5	8.08816023E-5
3.76092000E+5	1.35000497E+2	0.00000000E+0	0.00000000E+0	-2.60000000E-13	2.82065000E-8	1.62424300E-5	8.10931332E-5
3.78958000E+5	1.36000496E+2	0.00000000E+0	0.00000000E+0	-2.90000000E-13	2.72684000E-8	1.57339400E-5	8.10909010E-5
3.81839000E+5	1.36999515E+2	0.00000000E+0	0.00000000E+0	-1.30000000E-13	2.63029000E-8	1.52159300E-5	8.11608858E-5
3.84857000E+5	1.37999057E+2	0.00000000E+0	0.00000000E+0	-3.10000000E-13	2.53083000E-8	1.46845400E-5	8.12162138E-5
3.87759000E+5	1.39001489E+2	0.00000000E+0	0.00000000E+0	-5.30000000E-13	2.42807000E-8	1.41347400E-5	8.05398113E-5
3.90658000E+5	1.40000063E+2	0.00000000E+0	0.00000000E+0	-2.20000000E-13	2.31947000E-8	1.35444700E-5	8.12477149E-5
3.93554000E+5	1.40999332E+2	0.00000000E+0	0.00000000E+0	-6.90000000E-13	2.20356000E-8	1.29035600E-5	8.12927313E-5
3.96361000E+5	1.41999899E+2	0.00000000E+0	0.00000000E+0	-9.00000000E-14	2.08032000E-8	1.22143000E-5	8.07543583E-5
3.99310000E+5	1.43001052E+2	0.00000000E+0	0.00000000E+0	-1.60000000E-13	1.95096000E-8	1.14831300E-5	8.14552941E-5
4.02191000E+5	1.43998849E+2	0.00000000E+0	0.00000000E+0	-4.60000000E-13	1.81778000E-8	1.07297400E-5	8.11434992E-5
4.05068000E+5	1.45000724E+2	0.00000000E+0	0.00000000E+0	-5.10000000E-13	1.68163000E-8	9.95220000E-6	8.09380300E-5
4.08021000E+5	1.46000675E+2	0.00000000E+0	0.00000000E+0	-3.20000000E-13	1.54697000E-8	9.17342000E-6	8.06055105E-5
4.11019000E+5	1.46998331E+2	0.00000000E+0	0.00000000E+0	-6.00000000E-14	1.41558000E-8	8.40591000E-6	8.08508612E-5
4.13979000E+5	1.48000650E+2	0.00000000E+0	0.00000000E+0	-2.50000000E-13	1.29143000E-8	7.67616000E-6	8.10374386E-5
4.16919000E+5	1.49000106E+2	0.00000000E+0	0.00000000E+0	-3.60000000E-13	1.17523000E-8	6.99090000E-6	8.12615879E-5
4.19785000E+5	1.49998963E+2	0.00000000E+0	0.00000000E+0	-7.90000000E-13	1.06746000E-8	6.35385000E-6	8.10032196E-5
4.23385000E+5	1.50973413E+2	0.00000000E+0	0.00000000E+0	-4.50000000E-13	9.63280000E-9	5.74065000E-6	8.08459408E-5
4.27052000E+5	1.52022336E+2	0.00000000E+0	0.00000000E+0	-3.70000000E-13	8.95600000E-9	5.34226000E-6	8.09989609E-5
4.30672000E+5	1.53002976E+2	0.00000000E+0	0.00000000E+0	-5.20000000E-13	8.30860000E-9	4.96188000E-6	8.08860935E-5
4.34295000E+5	1.54001826E+2	0.00000000E+0	0.00000000E+0	-3.30000000E-13	7.69120000E-9	4.59822000E-6	8.09825457E-5
4.38013000E+5	1.54999972E+2	0.00000000E+0	0.00000000E+0	-6.20000000E-13	7.11820000E-9	4.25914000E-6	8.08876074E-5
4.41664000E+5	1.55999722E+2	0.00000000E+0	0.00000000E+0	-5.20000000E-13	6.61230000E-9	3.95666000E-6	8.08064289E-5
4.45326000E+5	1.56997919E+2	0.00000000E+0	0.00000000E+0	-2.60000000E-13	6.16400000E-9	3.68785000E-6	8.10376174E-5
4.48959000E+5	1.57998028E+2	0.00000000E+0	0.00000000E+0	-3.00000000E-13	5.76620000E-9	3.44939000E-6	8.10092605E-5
4.52513000E+5	1.59000449E+2	0.00000000E+0	0.00000000E+0	-3.30000000E-13	5.39400000E-9	3.22621000E-6	8.07865716E-5
4.56097000E+5	1.59994549E+2	0.00000000E+0	0.00000000E+0	-5.60000000E-13	5.06350000E-9	3.02309000E-6	8.10223467E-5
4.59629000E+5	1.60993582E+2	0.00000000E+0	0.00000000E+0	-5.20000000E-13	4.81520000E-9	2.86772000E-6	8.12965997E-5
4.63189000E+5	1.62001814E+2	0.00000000E+0	0.00000000E+0	-4.20000000E-13	4.56960000E-9	2.71225000E-6	8.08612354E-5
4.66709000E+5	1.63006378E+2	0.00000000E+0	0.00000000E+0	-4.50000000E-13	4.28920000E-9	2.53577000E-6	8.12517799E-5
4.70325000E+5	1.64002457E+2	0.00000000E+0	0.00000000E+0	-2.30000000E-13	3.98630000E-9	2.36254000E-6	8.07524360E-5
4.73900000E+5	1.65004864E+2	0.00000000E+0	0.00000000E+0	-3.30000000E-13	3.65650000E-9	2.17908000E-6	8.08673299E-5
4.77519000E+5	1.65999753E+2	0.00000000E+0	0.00000000E+0	-3.20000000E-13	3.34640000E-9	1.99633000E-6	8.05351353E-5
4.81100000E+5	1.67000638E+2	0.00000000E+0	0.00000000E+0	-9.00000000E-14	3.06890000E-9	1.82941000E-6	8.06917704E-5
4.84608000E+5	1.67997960E+2	0.00000000E+0	0.00000000E+0	-4.40000000E-13	2.83740000E-9	1.68955000E-6	8.09964992E-5
4.88176000E+5	1.68998982E+2	0.00000000E+0	0.00000000E+0	-2.70000000E-13	2.63490000E-9	1.56601000E-6	8.05697060E-5
4.91801000E+5	1.69997591E+2	0.00000000E+0	0.00000000E+0	-4.90000000E-13	2.46050000E-9	1.45946000E-6	8.08209873E-5
4.95368000E+5	1.70991972E+2	0.00000000E+0	0.00000000E+0	-4.50000000E-13	2.32680000E-9	1.37831000E-6	8.13340850E-5
4.98908000E+5	1.71994131E+2	0.00000000E+0	0.00000000E+0	-2.40000000E-13	2.23340000E-9	1.32271000E-6	8.10509927E-5
5.02480000E+5	1.73006836E+2	0.00000000E+0	0.00000000E+0	-6.20000000E-13	2.13060000E-9	1.26165000E-6	8.06379027E-5
5.06030000E+5	1.74004986E+2	0.00000000E+0	0.00000000E+0	-1.10000000E-13	2.01120000E-9	1.19010000E-6	8.12797494E-5
5.09582000E+5	1.75001196E+2	0.00000000E+0	0.00000000E+0	-7.40000000E-13	1.89460000E-9	1.11970000E-6	8.06435681E-5
5.13137000E+5	1.76002719E+2	0.00000000E+0	0.00000000E+0	-1.50000000E-13	1.77170000E-9	1.04552000E-6	8.09777178E-5
5.16670000E+5	1.77000680E+2	0.00000000E+0	0.00000000E+0	-6.50000000E-13	1.66440000E-9	9.81250000E-7	8.09579886E-5
5.20235000E+5	1.77995569E+2	0.00000000E+0	0.00000000E+0	-2.60000000E-13	1.57670000E-9	9.29010000E-7	8.08256752E-5
5.23772000E+5	1.79000259E+2	0.00000000E+0	0.00000000E+0	-3.40000000E-13	1.50650000E-9	8.87510000E-7	8.09314765E-5
5.27324000E+5	1.79998058E+2	0.00000000E+0	0.00000000E+0	-3.00000000E-13	1.45370000E-9	8.56500000E-7	8.08795131E-5
5.30900000E+5	1.80994604E+2	0.00000000E+0	0.00000000E+0	-4.10000000E-13	1.41410000E-9	8.33130000E-7	8.09520609E-5
5.34451000E+5	1.81992505E+2	0.00000000E+0	0.00000000E+0	-4.60000000E-13	1.39100000E-9	8.19290000E-7	8.08527238E-5
5.38678000E+5	1.83000481E+2	0.00000000E+0	0.00000000E+0	-1.10000000E-13	1.37170000E-9	8.08240000E-7	8.08283962E-5
5.42210000E+5	1.84008704E+2	0.00000000E+0	0.00000000E+0	-4.10000000E-13	1.34310000E-9	7.91620000E-7	8.11033197E-5
5.45736000E+5	1.85002468E+2	0.00000000E+0	0.00000000E+0	-4.80000000E-13	1.31170000E-9	7.73320000E-7	8.07829149E-5
5.49316000E+5	1.86002562E+2	0.00000000E+0	0.00000000E+0	-2.30000000E-13	1.27960000E-9	7.54360000E-7	8.09416420E-5
5.52885000E+5	1.87003020E+2	0.00000000E+0	0.00000000E+0	-3.80000000E-13	1.24990000E-9	7.36850000E-7	8.03979910E-5
5.56498000E+5	1.87999623E+2	0.00000000E+0	0.00000000E+0	-2.90000000E-13	1.22790000E-9	7.24310000E-7	8.07118244E-5
5.60089000E+5	1.88995538E+2	0.00000000E+0	0.00000000E+0	-2.80000000E-13	1.21340000E-9	7.15720000E-7	8.09535242E-5
5.63668000E+5	1.89997894E+2	0.00000000E+0	0.00000000E+0	-1.80000000E-13	1.20340000E-9	7.10250000E-7	8.06331880E-5
5.67226000E+5	1.90998819E+2	0.00000000E+0	0.00000000E+0	-3.50000000E-13	1.19840000E-9	7.07680000E-7	8.07352490E-5
5.70816000E+5	1.91994258E+2	0.00000000E+0	0.00000000E+0	7.00000000E-14	1.19830000E-9	7.07920000E-7	8.08567412E-5
5.74363000E+5	1.92995041E+2	0.00000000E+0	0.00000000E+0	-3.10000000E-13	1.20470000E-9	7.11930000E-7	8.08171696E-5
5.77892000E+5	1.94006250E+2	0.00000000E+0	0.00000000E+0	-7.00000000E-14	1.20640000E-9	7.13240000E-7	8.10833104E-5
5.81481000E+5	1.95001813E+2	0.00000000E+0	0.00000000E+0	-4.90000000E-13	1.20360000E-9	7.12140000E-7	8.06847043E-5
5.85002000E+5	1.96002980E+2	0.00000000E+0	0.00000000E+0	-1.00000000E-13	1.19810000E-9	7.09280000E-7	8.08302946E-5
5.88537000E+5	1.97007079E+2	0.00000000E+0	0.00000000E+0	-3.50000000E-13	1.18870000E-9	7.04380000E-7	8.09410400E-5
5.92148000E+5	1.97998510E+2	0.00000000E+0	0.00000000E+0	-3.70000000E-13	1.18030000E-9	7.00240000E-7	8.05831052E-5
5.95703000E+5	1.98997169E+2	0.00000000E+0	0.00000000E+0	-1.20000000E-13	1.17380000E-9	6.97130000E-7	8.05464990E-5
5.99266000E+5	1.99998373E+2	0.00000000E+0	0.00000000E+0	-4.30000000E-13	1.16940000E-9	6.95440000E-7	8.07531572E-5
6.02797000E+5	2.00994748E+2	0.00000000E+0	0.00000000E+0	-3.80000000E-13	1.16730000E-9	6.95440000E-7	8.04420895E-5
6.06386000E+5	2.01997531E+2	0.00000000E+0	0.00000000E+0	-2.90000000E-13	1.16910000E-9	6.97580000E-7	8.08299638E-5
6.09946000E+5	2.02994623E+2	0.00000000E+0	0.00000000E+0	-3.70000000E-13	1.17800000E-9	7.03940000E-7	8.07907409E-5
6.13479000E+5	2.04001759E+2	0.00000000E+0	0.00000000E+0	-5.70000000E-13	1.18680000E-9	7.10240000E-7	8.08339960E-5
6.17030000E+5	2.05006870E+2	0.00000000E+0	0.00000000E+0	-2.80000000E-13	1.19130000E-9	7.14360000E-7	8.07272769E-5
6.20617000E+5	2.06004963E+2	0.00000000E+0	0.00000000E+0	-2.80000000E-13	1.19520000E-9	7.17960000E-7	8.06721217E-5
6.24229000E+5	2.07002219E+2	0.00000000E+0	0.00000000E+0	-4.70000000E-13	1.19810000E-9	7.21070000E-7	8.04474450E-5
6.27788000E+5	2.08002806E+2	0.00000000E+0	0.00000000E+0	-4.40000000E-13	1.20050000E-9	7.24450000E-7	8.08549739E-5
6.31303000E+5	2.08995567E+2	0.00000000E+0	0.00000000E+0	-4.50000000E-13	1.20530000E-9	7.29150000E-7	8.05641539E-5
6.34876000E+5	2.09999974E+2	0.00000000E+0	0.00000000E+0	3.00000000E-14	1.21150000E-9	7.34470000E-7	8.08488018E-5
6.38422000E+5	2.10992989E+2	0.00000000E+0	0.00000000E+0	-1.90000000E-13	1.21770000E-9	7.39930000E-7	8.08570332E-5
6.41981000E+5	2.11999146E+2	0.00000000E+0	0.00000000E+0	-3.90000000E-13	1.22460000E-9	7.45890000E-7	8.05167473E-5
6.45517000E+5	2.12995024E+2	0.00000000E+0	0.00000000E+0	-4.00000000E-13	1.23340000E-9	7.52590000E-7	8.08929659E-5
6.49042000E+5	2.13994241E+2	0.00000000E+0	0.00000000E+0	-3.90000000E-13	1.24490000E-9	7.61150000E-7	8.06587047E-5
6.52650000E+5	2.15007710E+2	0.00000000E+0	0.00000000E+0	-4.90000000E-13	1.25120000E-9	7.66420000E-7	8.11425246E-5
6.56152000E+5	2.16007023E+2	0.00000000E+0	0.00000000E+0	-6.10000000E-13	1.25010000E-9	7.67840000E-7	8.08333761E-5
6.59784000E+5	2.17002821E+2	0.00000000E+0	0.00000000E+0	-3.50000000E-13	1.24140000E-9	7.64560000E-7	8.06126542E-5
6.63388000E+5	2.17998365E+2	0.00000000E+0	0.00000000E+0	-3.50000000E-13	1.22950000E-9	7.59210000E-7	8.04216183E-5
6.66928000E+5	2.19000753E+2	0.00000000E+0	0.00000000E+0	-1.30000000E-13	1.21680000E-9	7.53420000E-7	8.08588333E-5
6.70467000E+5	2.19997394E+2	0.00000000E+0	0.00000000E+0	-4.70000000E-13	1.20640000E-9	7.48860000E-7	8.07244129E-5
6.74053000E+5	2.20997960E+2	0.00000000E+0	0.00000000E+0	-5.00000000E-14	1.19790000E-9	7.45340000E-7	8.05856056E-5
6.77588000E+5	2.21996946E+2	0.00000000E+0	0.00000000E+0	-3.20000000E-13	1.19160000E-9	7.43230000E-7	8.06443072E-5
6.81123000E+5	2.22995670E+2	0.00000000E+0	0.00000000E+0	-2.60000000E-13	1.19070000E-9	7.44290000E-7	8.06929565E-5
6.84689000E+5	2.23990662E+2	0.00000000E+0	0.00000000E+0	-3.40000000E-13	1.19690000E-9	7.49420000E-7	8.03177900E-5
6.88306000E+5	2.25007324E+2	0.00000000E+0	0.00000000E+0	-2.80000000E-13	1.20050000E-9	7.53240000E-7	8.07853825E-5
6.91797000E+5	2.26005906E+2	0.00000000E+0	0.00000000E+0	-4.00000000E-13	1.19930000E-9	7.54410000E-7	8.06947924E-5
6.95347000E+5	2.27003955E+2	0.00000000E+0	0.00000000E+0	-2.70000000E-13	1.19510000E-9	7.54000000E-7	8.05852420E-5
6.98937000E+5	2.28005948E+2	0.00000000E+0	0.00000000E+0	-6.50000000E-13	1.19090000E-9	7.53610000E-7	8.05445350E-5
7.02468000E+5	2.29001227E+2	0.00000000E+0	0.00000000E+0	-5.20000000E-13	1.18830000E-9	7.54270000E-7	8.05925257E-5
7.06068000E+5	2.29993920E+2	0.00000000E+0	0.00000000E+0	-4.30000000E-13	1.19020000E-9	7.57910000E-7	8.08218695E-5
7.09628000E+5	2.30998663E+2	0.00000000E+0	0.00000000E+0	-6.00000000E-14	1.19510000E-9	7.63200000E-7	8.03481704E-5
7.13230000E+5	2.31998492E+2	0.00000000E+0	0.00000000E+0	-3.50000000E-13	1.20350000E-9	7.70890000E-7	8.07136364E-5
7.17532000E+5	2.32995353E+2	0.00000000E+0	0.00000000E+0	-3.90000000E-13	1.21820000E-9	7.82080000E-7	8.05188662E-5
7.21124000E+5	2.33992303E+2	0.00000000E+0	0.00000000E+0	-4.50000000E-13	1.23900000E-9	7.97010000E-7	8.06848563E-5
7.24727000E+5	2.35001243E+2	0.00000000E+0	0.00000000E+0	-5.00000000E-13	1.26010000E-9	8.11990000E-7	8.06195832E-5
7.28267000E+5	2.36005291E+2	0.00000000E+0	0.00000000E+0	-9.00000000E-14	1.27790000E-9	8.25540000E-7	8.04884947E-5
7.31798000E+5	2.37006456E+2	0.00000000E+0	0.00000000E+0	-2.00000000E-13	1.29350000E-9	8.38550000E-7	8.06179649E-5
7.35396000E+5	2.38008226E+2	0.00000000E+0	0.00000000E+0	-1.30000000E-13	1.30820000E-9	8.51190000E-7	8.05462784E-5
7.38983000E+5	2.38996230E+2	0.00000000E+0	0.00000000E+0	-3.70000000E-13	1.32440000E-9	8.64670000E-7	8.07353205E-5
7.42490000E+5	2.39999143E+2	0.00000000E+0	0.00000000E+0	-6.70000000E-13	1.34300000E-9	8.79390000E-7	8.08381624E-5
7.46007000E+5	2.41000838E+2	0.00000000E+0	0.00000000E+0	-1.10000000E-13	1.36370000E-9	8.95560000E-7	8.06023545E-5
7.49586000E+5	2.41990326E+2	0.00000000E+0	0.00000000E+0	-8.70000000E-13	1.38670000E-9	9.12920000E-7	8.05125899E-5
7.53187000E+5	2.42998751E+2	0.00000000E+0	0.00000000E+0	-1.00000000E-13	1.41170000E-9	9.31650000E-7	8.08614291E-5
7.56768000E+5	2.43995297E+2	0.00000000E+0	0.00000000E+0	-2.60000000E-13	1.43960000E-9	9.52030000E-7	8.04412967E-5
7.60310000E+5	2.44995310E+2	0.00000000E+0	0.00000000E+0	-5.10000000E-13	1.46990000E-9	9.73470000E-7	8.06311733E-5
7.63865000E+5	2.46007256E+2	0.00000000E+0	0.00000000E+0	-5.30000000E-13	1.49800000E-9	9.94130000E-7	8.04925567E-5
7.67381000E+5	2.47000931E+2	0.00000000E+0	0.00000000E+0	-4.50000000E-13	1.52400000E-9	1.01359000E-6	8.07024396E-5
7.70929000E+5	2.48004559E+2	0.00000000E+0	0.00000000E+0	-7.20000000E-13	1.54770000E-9	1.03162000E-6	8.01735556E-5
7.74483000E+5	2.49000972E+2	0.00000000E+0	0.00000000E+0	-5.70000000E-13	1.57000000E-9	1.04849000E-6	8.07489372E-5
7.78058000E+5	2.49998490E+2	0.00000000E+0	0.00000000E+0	-3.60000000E-13	1.59200000E-9	1.06495000E-6	8.07542629E-5
7.81019000E+5	2.50996670E+2	0.00000000E+0	0.00000000E+0	-4.40000000E-13	1.58840000E-9	1.06392000E-6	8.04590291E-5
7.84030000E+5	2.51998288E+2	0.00000000E+0	0.00000000E+0	-2.40000000E-13	1.58440000E-9	1.06216000E-6	8.05425770E-5
7.87035000E+5	2.52999390E+2	0.00000000E+0	0.00000000E+0	-4.20000000E-13	1.57990000E-9	1.05990000E-6	8.11661668E-5
7.90031000E+5	2.54000997E+2	0.00000000E+0	0.00000000E+0	-6.20000000E-13	1.57470000E-9	1.05670000E-6	8.04817236E-5
7.93011000E+5	2.54998048E+2	0.00000000E+0	0.00000000E+0	-4.90000000E-13	1.56910000E-9	1.05294000E-6	8.01214075E-5
7.96000000E+5	2.56000891E+2	0.00000000E+0	0.00000000E+0	-4.20000000E-13	1.56350000E-9	1.04874000E-6	8.08159358E-5
7.98929000E+5	2.56998877E+2	0.00000000E+0	0.00000000E+0	-2.80000000E-13	1.55710000E-9	1.04386000E-6	8.04789252E-5
8.01921000E+5	2.57998072E+2	0.00000000E+0	0.00000000E+0	-1.40000000E-13	1.55090000E-9	1.03868000E-6	8.08416344E-5
8.04961000E+5	2.59001053E+2	0.00000000E+0	0.00000000E+0	-6.40000000E-13	1.54430000E-9	1.03291000E-6	8.03124732E-5
8.08032000E+5	2.60001626E+2	0.00000000E+0	0.00000000E+0	-3.00000000E-13	1.53830000E-9	1.02696000E-6	8.05201209E-5
8.17655000E+5	2.55002602E+2	0.00000000E+0	0.00000000E+0	1.51200000E-13	3.48822000E-11	2.53800000E-8	8.04736949E-5
8.22699000E+5	2.55995746E+2	0.00000000E+0	0.00000000E+0	2.01500000E-13	3.59049000E-11	2.55130000E-8	8.04192311E-5
8.27023000E+5	2.57000342E+2	0.00000000E+0	0.00000000E+0	1.93200000E-13	3.64598000E-11	2.56720000E-8	8.03093976E-5
8.31276000E+5	2.57999885E+2	0.00000000E+0	0.00000000E+0	1.81000000E-13	3.69338000E-11	2.58090000E-8	8.03715653E-5
8.35528000E+5	2.59001053E+2	0.00000000E+0	0.00000000E+0	2.11600000E-13	3.73655000E-11	2.59680000E-8	8.05356122E-5
8.39769000E+5	2.59998870E+2	0.00000000E+0	0.00000000E+0	1.49800000E-13	3.77717000E-11	2.60420000E-8	8.03378052E-5
8.44047000E+5	2.61003256E+2	0.00000000E+0	0.00000000E+0	1.77600000E-13	3.81750000E-11	2.62160000E-8	8.07255960E-5
8.48276000E+5	2.61998568E+2	0.00000000E+0	0.00000000E+0	1.68800000E-13	3.85844000E-11	2.63690000E-8	8.02353478E-5
8.52535000E+5	2.62999548E+2	0.00000000E+0	0.00000000E+0	1.74600000E-13	3.90354000E-11	2.65340000E-8	8.03359574E-5
8.56726000E+5	2.64000582E+2	0.00000000E+0	0.00000000E+0	1.73600000E-13	3.95045000E-11	2.66950000E-8	8.04808653E-5
8.60945000E+5	2.64995083E+2	0.00000000E+0	0.00000000E+0	1.81600000E-13	4.00125000E-11	2.69070000E-8	8.04506368E-5
8.65222000E+5	2.65999812E+2	0.00000000E+0	0.00000000E+0	1.95500000E-13	4.05555000E-11	2.70870000E-8	8.03865320E-5
8.69496000E+5	2.67001923E+2	0.00000000E+0	0.00000000E+0	1.71000000E-13	4.11399000E-11	2.73690000E-8	8.06397236E-5
8.73747000E+5	2.67998520E+2	0.00000000E+0	0.00000000E+0	1.56900000E-13	4.17605000E-11	2.76220000E-8	8.05388487E-5
8.77994000E+5	2.68996859E+2	0.00000000E+0	0.00000000E+0	1.64300000E-13	4.24444000E-11	2.78800000E-8	8.01313764E-5
8.82261000E+5	2.70001925E+2	0.00000000E+0	0.00000000E+0	1.75000000E-13	4.31583000E-11	2.81210000E-8	8.01209396E-5
8.86503000E+5	2.71001588E+2	0.00000000E+0	0.00000000E+0	1.50800000E-13	4.38963000E-11	2.84320000E-8	8.01708317E-5
8.90826000E+5	2.72000023E+2	0.00000000E+0	0.00000000E+0	1.78600000E-13	4.46515000E-11	2.85980000E-8	8.02890635E-5
8.95072000E+5	2.72997767E+2	0.00000000E+0	0.00000000E+0	2.15300000E-13	4.53955000E-11	2.88100000E-8	8.03399539E-5
8.99311000E+5	2.74002656E+2	0.00000000E+0	0.00000000E+0	2.10800000E-13	4.61245000E-11	2.89180000E-8	8.01873839E-5
9.03593000E+5	2.74997836E+2	0.00000000E+0	0.00000000E+0	1.79900000E-13	4.67957000E-11	2.89650000E-8	8.02445597E-5
9.07841000E+5	2.76000224E+2	0.00000000E+0	0.00000000E+0	2.17500000E-13	4.74081000E-11	2.89150000E-8	8.04446763E-5
9.12863000E+5	2.77000431E+2	0.00000000E+0	0.00000000E+0	2.00100000E-13	4.79527000E-11	2.87750000E-8	8.03445852E-5
9.17136000E+5	2.78002215E+2	0.00000000E+0	0.00000000E+0	2.27700000E-13	4.84294000E-11	2.85180000E-8	8.03843266E-5
9.21442000E+5	2.78999728E+2	0.00000000E+0	0.00000000E+0	1.65500000E-13	4.88422000E-11	2.81590000E-8	8.04713405E-5
9.25729000E+5	2.80002200E+2	0.00000000E+0	0.00000000E+0	2.63400000E-13	4.92041000E-11	2.75770000E-8	8.04228968E-5
9.30044000E+5	2.80996445E+2	0.00000000E+0	0.00000000E+0	1.82100000E-13	4.95568000E-11	2.70000000E-8	8.04714209E-5
9.34294000E+5	2.82001347E+2	0.00000000E+0	0.00000000E+0	2.41100000E-13	4.98935000E-11	2.63690000E-8	8.03392744E-5
9.38507000E+5	2.82999693E+2	0.00000000E+0	0.00000000E+0	1.74800000E-13	5.02530000E-11	2.55960000E-8	8.02671290E-5
9.42813000E+5	2.83999167E+2	0.00000000E+0	0.00000000E+0	2.01000000E-13	5.06119000E-11	2.45660000E-8	8.03284711E-5
9.47010000E+5	2.84996654E+2	0.00000000E+0	0.00000000E+0	1.96100000E-13	5.09925000E-11	2.35360000E-8	8.02407837E-5
9.51297000E+5	2.85998396E+2	0.00000000E+0	0.00000000E+0	1.80000000E-13	5.13405000E-11	2.22170000E-8	8.05079973E-5
9.55594000E+5	2.87004005E+2	0.00000000E+0	0.00000000E+0	2.35100000E-13	5.15960000E-11	2.06680000E-8	8.03113616E-5
9.59862000E+5	2.87997818E+2	0.00000000E+0	0.00000000E+0	2.10300000E-13	5.16178000E-11	1.87480000E-8	8.03070075E-5
9.64100000E+5	2.88998635E+2	0.00000000E+0	0.00000000E+0	1.94800000E-13	5.12269000E-11	1.62300000E-8	8.05039591E-5
9.68375000E+5	2.89996594E+2	0.00000000E+0	0.00000000E+0	1.18500000E-13	5.26084000E-11	1.26190000E-8	8.03178615E-5
9.72642000E+5	2.91000468E+2	0.00000000E+0	0.00000000E+0	1.77100000E-13	5.93626000E-11	7.44500000E-9	8.04161257E-5
9.76886000E+5	2.91997752E+2	0.00000000E+0	0.00000000E+0	1.54800000E-13	8.40323000E-11	2.78600000E-9	8.00828284E-5
9.81159000E+5	2.92994179E+2	0.00000000E+0	0.00000000E+0	1.51800000E-13	1.12477000E-10	1.17200000E-9	8.03781099E-5
9.85439000E+5	2.94001233E+2	0.00000000E+0	0.00000000E+0	1.68900000E-13	1.30356600E-10	1.45900000E-9	8.02736974E-5
9.89708000E+5	2.94998491E+2	0.00000000E+0	0.00000000E+0	1.98800000E-13	1.50684900E-10	1.40700000E-9	8.03059912E-5
9.93967000E+5	2.96002275E+2	0.00000000E+0	0.00000000E+0	1.69700000E-13	1.67872700E-10	1.17600000E-9	8.02409983E-5
9.98226000E+5	2.97001319E+2	0.00000000E+0	0.00000000E+0	1.54300000E-13	1.71102300E-10	9.42000000E-10	8.03687191E-5
1.00251600E+6	2.97994052E+2	0.00000000E+0	0.00000000E+0	1.84200000E-13	1.65913300E-10	9.90000000E-10	8.02412337E-5
1.00684100E+6	2.98999875E+2	0.00000000E+0	0.00000000E+0	1.42000000E-13	1.59403200E-10	1.10400000E-9	8.00525552E-5
1.01110300E+6	2.99995951E+2	0.00000000E+0	0.00000000E+0	2.01700000E-13	1.59320400E-10	1.23900000E-9	7.99201077E-5
1.01537800E+6	3.00998752E+2	0.00000000E+0	0.00000000E+0	1.67700000E-13	1.65550000E-10	1.44300000E-9	8.00397968E-5
1.01975600E+6	3.01999066E+2	0.00000000E+0	0.00000000E+0	1.42900000E-13	1.74108500E-10	1.75700000E-9	7.99280411E-5
1.02393300E+6	3.03005989E+2	0.00000000E+0	0.00000000E+0	1.96100000E-13	1.81984700E-10	1.81800000E-9	8.02807904E-5
1.02821800E+6	3.03998604E+2	0.00000000E+0	0.00000000E+0	9.66000000E-14	1.88797800E-10	2.04900000E-9	8.02425063E-5
1.03251700E+6	3.05001590E+2	0.00000000E+0	0.00000000E+0	1.75500000E-13	1.94520000E-10	2.12000000E-9	8.02262968E-5
1.03678100E+6	3.06000195E+2	0.00000000E+0	0.00000000E+0	1.43900000E-13	1.99678000E-10	2.49600000E-9	8.01652050E-5
1.04100600E+6	3.07003380E+2	0.00000000E+0	0.00000000E+0	2.09500000E-13	2.04922400E-10	2.60300000E-9	8.01112896E-5
1.04529000E+6	3.07998085E+2	0.00000000E+0	0.00000000E+0	2.27700000E-13	2.09963100E-10	2.88400000E-9	8.03617126E-5
1.04952100E+6	3.09005680E+2	0.00000000E+0	0.00000000E+0	1.97400000E-13	9.90000000E+37	3.10600000E-9	8.01646716E-5
1.05379400E+6	3.09998526E+2	0.00000000E+0	0.00000000E+0	2.14100000E-13	9.90000000E+37	3.38200000E-9	8.01834649E-5
1.05807700E+6	3.10997334E+2	0.00000000E+0	0.00000000E+0	1.62800000E-13	9.90000000E+37	3.66900000E-9	8.01038450E-5
1.06236000E+6	3.11997971E+2	0.00000000E+0	0.00000000E+0	6.23000000E-14	9.90000000E+37	4.02600000E-9	8.02891320E-5
1.06665100E+6	3.13001669E+2	0.00000000E+0	0.00000000E+0	1.84900000E-13	9.90000000E+37	4.42300000E-9	7.98760599E-5
1.07097400E+6	3.14000411E+2	0.00000000E+0	0.00000000E+0	1.54800000E-13	9.90000000E+37	4.91500000E-9	7.99996531E-5
1.07524400E+6	3.14999638E+2	0.00000000E+0	0.00000000E+0	1.81000000E-13	9.90000000E+37	5.46700000E-9	8.04536737E-5
1.07951900E+6	3.16001341E+2	0.00000000E+0	0.00000000E+0	1.83500000E-13	9.90000000E+37	6.16100000E-9	8.02081681E-5
1.08367700E+6	3.16995793E+2	0.00000000E+0	0.00000000E+0	1.73200000E-13	9.90000000E+37	6.76500000E-9	7.99278951E-5
1.08797100E+6	3.17998396E+2	0.00000000E+0	0.00000000E+0	2.00300000E-13	9.90000000E+37	7.41800000E-9	8.03839958E-5
1.09217400E+6	3.19004209E+2	0.00000000E+0	0.00000000E+0	2.19900000E-13	9.90000000E+37	7.94500000E-9	8.00958818E-5
1.09642700E+6	3.20000178E+2	0.00000000E+0	0.00000000E+0	1.17400000E-13	9.90000000E+37	8.46100000E-9	8.00918317E-5
1.11239300E+6	2.55012493E+2	0.00000000E+0	0.00000000E+0	2.30300000E-13	9.90000000E+37	1.04350700E-6	8.02271700E-5
1.11784500E+6	2.55990152E+2	0.00000000E+0	0.00000000E+0	1.89700000E-13	9.90000000E+37	1.03949200E-6	7.97311580E-5
1.12213100E+6	2.56998537E+2	0.00000000E+0	0.00000000E+0	2.25700000E-13	9.90000000E+37	1.03453500E-6	8.01140314E-5
1.12642300E+6	2.58002266E+2	0.00000000E+0	0.00000000E+0	1.52500000E-13	9.90000000E+37	1.02905400E-6	7.99658006E-5
1.13072700E+6	2.58998429E+2	0.00000000E+0	0.00000000E+0	1.58500000E-13	9.90000000E+37	1.02344400E-6	8.02497810E-5
1.13497700E+6	2.59998984E+2	0.00000000E+0	0.00000000E+0	1.67400000E-13	9.90000000E+37	1.01787900E-6	8.03663558E-5
1.14016200E+6	2.61002217E+2	0.00000000E+0	0.00000000E+0	2.00100000E-13	9.90000000E+37	1.01227700E-6	8.01002300E-5
1.14447600E+6	2.62001128E+2	0.00000000E+0	0.00000000E+0	1.49500000E-13	9.90000000E+37	1.00682100E-6	8.01632709E-5
1.14874400E+6	2.62998844E+2	0.00000000E+0	0.00000000E+0	1.79200000E-13	9.90000000E+37	1.00213900E-6	8.03067840E-5
1.15303700E+6	2.64001290E+2	0.00000000E+0	0.00000000E+0	1.63800000E-13	9.90000000E+37	9.98306000E-7	8.00727582E-5
1.15729700E+6	2.64994253E+2	0.00000000E+0	0.00000000E+0	1.96700000E-13	9.90000000E+37	9.95446000E-7	7.97248011E-5
1.16152000E+6	2.65998976E+2	0.00000000E+0	0.00000000E+0	1.72800000E-13	9.90000000E+37	9.93155000E-7	7.98832631E-5
1.16570700E+6	2.66998199E+2	0.00000000E+0	0.00000000E+0	1.65400000E-13	9.90000000E+37	9.91605000E-7	8.01817185E-5
1.16995800E+6	2.68001180E+2	0.00000000E+0	0.00000000E+0	2.16100000E-13	9.90000000E+37	9.90185000E-7	7.98049396E-5
1.17420700E+6	2.68999048E+2	0.00000000E+0	0.00000000E+0	2.18100000E-13	9.90000000E+37	9.88813000E-7	8.00426251E-5
2.14748365E+9	2.70000000E+2	0.00000000E+0	0.00000000E+0	     NaN	     NaN	     NaN	7.99632496E-5
