G:\BEAR_storage\User_Experiments\20220317_arneodo\file(1)_Region 2__0050.txt
Ring Energy (GeV): 2
Lifetime (hours): 0
Scan beginning: 3/19/2022	10:33:43 AM
Ring current (mA): 309.36
Source position: x (mm): -0.002 x' (mrad): 0.002 y (mm): 0.003 y' (mrad): 0.004
Scan end: 3/19/2022	10:37:57 AM
Ring current (mA): 309.41
Source position: x (mm): -0.001 x' (mrad): 0.001 y (mm): 0.003 y' (mrad): 0.003

SCAN TYPE: PHOTON ENERGY VS VAR_1 VS VAR_2

FILE INFO: FILE INFO:

SCAN PARAMETERS
waiting time (ms): 0
Number of scans: 1
Current scan number: 1
DARK OFF 
PREDARK OFF 

SCAN PARAMETERS
Regions configuration: 
number of regions: 7
Mirror grating scan: on
Timed acquisition: off
Region 1:
Initial energy (eV): 40.000000
Final energy (eV): 72.000000
Delta energy (eV): 1.000000
Deviation angle choice: Higher order rejection
Deviation angle (°): NaN
Al filter
G1200 channel
range keithley B 20 nA
range keithley C 2 uA
range keithley A 20 nA
Var_1: PsiC 0.000000
Var_2: PhiM0.000000
Bias CEM (V): 0.000000
Bias Keithley B (V): -30.000000
Name region: 
Region 2:
Initial energy (eV): 70.000000
Final energy (eV): 102.000000
Delta energy (eV): 1.000000
Deviation angle choice: Higher order rejection
Deviation angle (°): NaN
Si filter
G1200 channel
range keithley B 20 nA
range keithley C 2 uA
range keithley A 20 nA
Var_1: PsiC 0.000000
Var_2: PhiM0.000000
Bias CEM (V): 0.000000
Bias Keithley B (V): -30.000000
Name region: 
Region 3:
Initial energy (eV): 98.000000
Final energy (eV): 260.000000
Delta energy (eV): 1.000000
Deviation angle choice: Higher order rejection
Deviation angle (°): NaN
Full Beam
G1200 channel
range keithley B 20 nA
range keithley C 20 uA
range keithley A 200 nA
Var_1: PsiC 0.000000
Var_2: PhiM0.000000
Bias CEM (V): 0.000000
Bias Keithley B (V): -30.000000
Name region: 
Region 4:
Initial energy (eV): 255.000000
Final energy (eV): 320.000000
Delta energy (eV): 1.000000
Deviation angle choice: Higher order rejection
Deviation angle (°): NaN
filter Ag 0.6 um
G1200 channel
range keithley B 200 pA
range keithley C 2 uA
range keithley A 200 pA
Var_1: PsiC 0.000000
Var_2: PhiM0.000000
Bias CEM (V): 0.000000
Bias Keithley B (V): -30.000000
Name region: 
Region 5:
Initial energy (eV): 255.000000
Final energy (eV): 320.000000
Delta energy (eV): 1.000000
Deviation angle choice: Higher order rejection
Deviation angle (°): NaN
Full Beam
G1200 channel
range keithley B 200 pA
range keithley C 2 uA
range keithley A 200 pA
Var_1: PsiC 0.000000
Var_2: PhiM0.000000
Bias CEM (V): 0.000000
Bias Keithley B (V): -30.000000
Name region: 
Region 6:
Initial energy (eV): 315.000000
Final energy (eV): 1200.000000
Delta energy (eV): 5.000000
Deviation angle choice: Higher order rejection
Deviation angle (°): NaN
Full Beam
G1200 channel
range keithley B 20 nA
range keithley C 2 uA
range keithley A 20 nA
Var_1: PsiC 0.000000
Var_2: PhiM0.000000
Bias CEM (V): 0.000000
Bias Keithley B (V): -30.000000
Name region: 
Region 7:
Initial energy (eV): 1190.000000
Final energy (eV): 1500.000000
Delta energy (eV): 5.000000
Deviation angle choice: Higher order rejection
Deviation angle (°): NaN
filter Ag 0.6 um
G1200 channel
range keithley B 200 pA
range keithley C 2 uA
range keithley A 200 pA
Var_1: PsiC 0.000000
Var_2: PhiM0.000000
Bias CEM (V): 0.000000
Bias Keithley B (V): -30.000000
Name region: 

BEAR MONOCHROMATOR CONFIGURATION: 
Current Grating Position:     -151128.70
Current Mirror Position: 2557.1
Current Grating: G1200
P2 phiz position:  0.0000
Mono axis position: 25.0000
Current Photon Energy (eV): 121.040
Current Deviation Angle: 155.000
Vertical Exit Slits (um): 100.000
Exit slit y axis position: 1.3625
Horizontal Exit Slits (um):  889.156
Exit slit z axis position: 1.9229
Mitutoyo position (mm): 

Dose on sample (mJ/cm^2): NaN

ENERGY CALIBRATION:
offset grating G1200: yes
Delta 0 order G1200:  -800.0
offset grating G1800: not
Delta 0 order G1800:  0.0
offset grating GNIM: not
Delta 0 order GNIM:  0.0
ZERO ORDER POSITIONS:
Grating G1200: Mirror position:  4938.0
Grating position: -105355.0
Grating G1800: 
Mirror position:  4938.0
Grating position: -106345.0
Grating GNIM: 
Mirror position:  10000.0
Grating position: 227300.0

Initial filter: Full Beam

EXPERIMENTAL CHAMBER CONFIGURATION: 
PsiC (deg):   -0.000186
Phi Analyzer (degrees): 89.992308
Theta Manipulator (degrees): -44.000040
Theta Analyzer (degrees): -135.001468
PhiM (degrees): -0.004103
XM (mm): 0.000713
YM (mm): 19.932987
ZM (mm): (Warning: for kinetic energy scans, 
this parameter is given in the scan settings) 
-6.601438
TiltM (°): 0.000138

ELECTRON ANALYZER CONFIGURATION: 
Current Kinetik energy (eV): 35.0
Mode: DE = COST
Pass Energy (eV):  50.000
CEM: ON
Bias Front-Back CEM (V): 3499.561
Bias Back-Collector CEM (V): 100.874
Bias Retard-Front CEM: 100.087COIL VALUES
Ix (amps):2.820
Iy (amps): 6.789
Iz (amps): 37.337

POLARIZATION SELECTOR CONFIGURATION:
Psi1 (rad): -0.001665535
Psi2 (rad): 0.001417093
Z min position (mm): 46.599650
DZ position (mm): 18.599100
Zmin 0 (mm): 66.500000
DZ0 (mm): 53.000000

BEAM SELECTOR CONFIGURATION:
Zmin position (mm): NaN
DZ position (mm): NaN
Y+ position (mm): NaN
Y- position (mm): NaN

CHANNEL ELECTRON MULTIPLIER CONFIGURATION:
CEM configured: OFF
Bias CEM: 0.000000

FLUORESCENCE DETECTOR CONFIGURATION:
Not configured

LUMINESCENCE MONOCHROMATOR CONFIGURATION:
Optical fiber position (mm): 0.000000
Optical fiber Switch inside: OFF
Optical fiber Switch outside: ON
Monochromator wavelength (A): 0.000000
Limit Switches: ON

I0 MONITOR PARAMETERS:
I0 detector position(mm): -0.000000E+0
Lower switch: OFF
Upper switch: OFF
Valve status:open

PRESSURE PARAMETERS:
Monitor chamber pressure (mbar): 8.96e-10
Experimental chamber pressure -ION GAUGE-(mbar): 0.000000E+0

XMCD PARAMETERS:
Xmcd OFF
Xmcd Direction -
Xmcd current (A): 0.000000

Gated scan off

Instrument 1: AMMETER KEITHLEY 6517A B
Measure type: Current
range type: set range value
range value (ampere):  200 pA
Integration time:  set NPLC value
NPLC value: 10.000
Digital filter count: 2
SAMPLE BIAS (V): -30.000
Vsource: ON
Output Voltage value: 30.000
Vsource range: 1000 V

Range Keithley B changed to 20 nA

Range Keithley B changed to 200 pA

Range Keithley B changed to 20 nA

Range Keithley B changed to 200 pA

Range Keithley B changed to 20 nA

Range Keithley B changed to 200 pA

Range Keithley B changed to 20 nA

Range Keithley B changed to 200 nA

Range Keithley B changed to 200 pA

Range Keithley B changed to 20 nA

Range Keithley B changed to 200 pA

Range Keithley B changed to 20 nA

Range Keithley B changed to 200 pA

Range Keithley B changed to 20 nA

Range Keithley B changed to 200 pA

Range Keithley B changed to 20 nA

Range Keithley B changed to 200 pA

Range Keithley B changed to 20 nA

Range Keithley B changed to 200 pA

Range Keithley B changed to 20 nA

Range Keithley B changed to 200 pA

Range Keithley B changed to 20 nA

Range Keithley B changed to 200 pA

Range Keithley B changed to 20 nA

Range Keithley B changed to 200 pA

Range Keithley B changed to 20 nA

Range Keithley B changed to 200 pA

Range Keithley B changed to 20 nA

Range Keithley B changed to 200 pA

Range Keithley B changed to 20 nA

Range Keithley B changed to 200 pA

Range Keithley B changed to 20 nA

Instrument 2: AMMETER KEITHLEY 6517A A
Measure type: Current
range type: set range value
range value (ampere):  200 nA
Integration time:  set NPLC value
NPLC value: 10.000
Digital filter count: 2
Vsource: OFF
Output Voltage value: -0.000
Vsource range: 100 V
Trigger source: bus

Range Keithley A changed to 20 nA

Range Keithley A changed to 200 nA

Range Keithley A changed to 200 pA

Range Keithley A changed to 20 nA

Range Keithley A changed to 200 pA

Range Keithley A changed to 20 nA

Range Keithley A changed to 200 nA

Range Keithley A changed to 200 pA

Range Keithley A changed to 20 nA

Range Keithley A changed to 200 pA

Range Keithley A changed to 20 nA

Range Keithley A changed to 200 nA

Range Keithley A changed to 200 pA

Range Keithley A changed to 20 nA

Range Keithley A changed to 200 pA

Range Keithley A changed to 20 nA

Range Keithley A changed to 200 pA

Range Keithley A changed to 20 nA

Range Keithley A changed to 200 pA

Range Keithley A changed to 20 nA

Range Keithley A changed to 200 pA

Range Keithley A changed to 20 nA

Range Keithley A changed to 200 nA

Range Keithley A changed to 200 pA

Range Keithley A changed to 20 nA

Range Keithley A changed to 200 pA

Range Keithley A changed to 20 nA

Range Keithley A changed to 200 nA

Range Keithley A changed to 200 pA

Range Keithley A changed to 20 nA

Range Keithley A changed to 200 nA

Range Keithley A changed to 200 pA

Range Keithley A changed to 20 nA

Range Keithley A changed to 200 pA

Range Keithley A changed to 20 nA

Range Keithley A changed to 200 pA

Range Keithley A changed to 20 nA

Range Keithley A changed to 200 nA

Range Keithley A changed to 200 pA

Range Keithley A changed to 20 nA

Range Keithley A changed to 200 pA

Range Keithley A changed to 20 nA

Range Keithley A changed to 200 nA

Range Keithley A changed to 20 nA

Range Keithley A changed to 200 nA

Range Keithley A changed to 200 pA

Range Keithley A changed to 20 nA

Range Keithley A changed to 200 nA

Range Keithley A changed to 2 uA

Range Keithley A changed to 20 nA

Range Keithley A changed to 200 nA

Range Keithley A changed to 2 uA

Range Keithley A changed to 20 nA

Range Keithley A changed to 200 nA

Range Keithley A changed to 200 pA

Range Keithley A changed to 2 uA

Range Keithley A changed to 20 nA

Range Keithley A changed to 200 nA

Range Keithley A changed to 200 pA

Range Keithley A changed to 20 nA

Range Keithley A changed to 2 uA

Range Keithley A changed to 20 nA

Range Keithley A changed to 200 nA

Range Keithley A changed to 20 nA

Range Keithley A changed to 200 nA

Range Keithley A changed to 200 pA

Range Keithley A changed to 2 uA

Range Keithley A changed to 20 nA

Range Keithley A changed to 200 nA

Range Keithley A changed to 20 nA

Range Keithley A changed to 200 nA

Range Keithley A changed to 200 pA

Range Keithley A changed to 20 nA

Range Keithley A changed to 200 nA

Range Keithley A changed to 20 nA

Range Keithley A changed to 200 nA

Instrument 3: AMMETER KEITHLEY 6517A C 
Measure type: Current
range type: set range value
range value (ampere):  2 uA
Integration time:  set NPLC value
NPLC value: 10.000
Digital filter count: 2
Vsource: OFF
Output Voltage value: -0.000
Vsource range: 100 V
Trigger source: bus


Range Keithley C changed to 20 uA


Range Keithley C changed to 2 uA


Range Keithley C changed to 200 uA


Range Keithley C changed to 2 uA


Range Keithley C changed to 20 uA


Range Keithley C changed to 200 uA


Range Keithley C changed to 2 uA


Range Keithley C changed to 20 uA


Range Keithley C changed to 2 uA


Range Keithley C changed to 20 uA


Range Keithley C changed to 200 uA


Range Keithley C changed to 2 uA


Range Keithley C changed to 20 uA


Range Keithley C changed to 2 uA


Range Keithley C changed to 20 uA


________________________________________________________________________________

RelativeTime (msec)	Photon Energy	Var_1	Var_2	INSTR_1_Sample with Bias _(ampere ) 	INSTR_2_Monitor IM_(ampere)  	INSTR_3_Diode A3_(ampere)	I_BPM_sum (Amps)	
________________________________________________________________________________

1.38083000E+5	7.00005723E+1	0.00000000E+0	0.00000000E+0	-5.50000000E-13	2.44290000E-10	1.07965000E-7	8.92296480E-5
1.42285000E+5	7.09992392E+1	0.00000000E+0	0.00000000E+0	-4.30000000E-13	2.62930000E-10	1.17363000E-7	8.92443078E-5
1.45717000E+5	7.19999196E+1	0.00000000E+0	0.00000000E+0	-4.70000000E-13	2.24790000E-10	1.01515000E-7	8.92783152E-5
1.49165000E+5	7.30001115E+1	0.00000000E+0	0.00000000E+0	-4.00000000E-13	2.90000000E-10	1.33609000E-7	8.92421471E-5
1.52470000E+5	7.39995533E+1	0.00000000E+0	0.00000000E+0	-5.60000000E-13	3.30090000E-10	1.54351000E-7	8.91845392E-5
1.55824000E+5	7.49999081E+1	0.00000000E+0	0.00000000E+0	-1.20000000E-13	3.33940000E-10	1.57527000E-7	8.96236944E-5
1.59135000E+5	7.60002395E+1	0.00000000E+0	0.00000000E+0	-1.90000000E-13	3.81510000E-10	1.83210000E-7	8.93474715E-5
1.62449000E+5	7.70001504E+1	0.00000000E+0	0.00000000E+0	-3.60000000E-13	4.28300000E-10	2.08142000E-7	8.91731607E-5
1.65762000E+5	7.79998590E+1	0.00000000E+0	0.00000000E+0	-2.90000000E-13	4.65280000E-10	2.28751000E-7	8.91388403E-5
1.69059000E+5	7.90000333E+1	0.00000000E+0	0.00000000E+0	-7.20000000E-13	5.05800000E-10	2.51734000E-7	8.93616097E-5
1.72393000E+5	7.99998243E+1	0.00000000E+0	0.00000000E+0	-6.40000000E-13	5.47270000E-10	2.75370000E-7	8.91646015E-5
1.75757000E+5	8.09997681E+1	0.00000000E+0	0.00000000E+0	-4.50000000E-13	5.87710000E-10	2.98854000E-7	8.91462104E-5
1.79105000E+5	8.20002405E+1	0.00000000E+0	0.00000000E+0	-4.10000000E-13	6.27170000E-10	3.22334000E-7	8.93252926E-5
1.82339000E+5	8.29992575E+1	0.00000000E+0	0.00000000E+0	-2.60000000E-13	6.72930000E-10	3.49505000E-7	8.94765305E-5
1.85522000E+5	8.39998298E+1	0.00000000E+0	0.00000000E+0	-1.70000000E-13	7.24940000E-10	3.80343000E-7	8.93407243E-5
1.88711000E+5	8.50006102E+1	0.00000000E+0	0.00000000E+0	-4.60000000E-13	7.78600000E-10	4.12334000E-7	8.90161740E-5
1.91899000E+5	8.60000127E+1	0.00000000E+0	0.00000000E+0	-4.80000000E-13	8.34250000E-10	4.45808000E-7	8.92327057E-5
1.95086000E+5	8.69996239E+1	0.00000000E+0	0.00000000E+0	-2.00000000E-13	8.94070000E-10	4.81759000E-7	8.92318057E-5
1.99018000E+5	8.80001377E+1	0.00000000E+0	0.00000000E+0	-6.30000000E-13	9.53540000E-10	5.17813000E-7	8.88443278E-5
2.02220000E+5	8.90002187E+1	0.00000000E+0	0.00000000E+0	-1.20000000E-13	1.01558000E-9	5.55418000E-7	8.93905538E-5
2.05444000E+5	8.99998405E+1	0.00000000E+0	0.00000000E+0	-6.50000000E-13	1.09036000E-9	6.00786000E-7	8.94669312E-5
2.08690000E+5	9.09996292E+1	0.00000000E+0	0.00000000E+0	-3.30000000E-13	1.17325000E-9	6.50935000E-7	8.92550038E-5
2.11890000E+5	9.20001929E+1	0.00000000E+0	0.00000000E+0	-3.40000000E-13	1.25343000E-9	6.99778000E-7	8.89520632E-5
2.15077000E+5	9.29999900E+1	0.00000000E+0	0.00000000E+0	-5.00000000E-13	1.33356000E-9	7.49064000E-7	8.92589646E-5
2.18297000E+5	9.40001606E+1	0.00000000E+0	0.00000000E+0	-1.30000000E-13	1.42621000E-9	8.05589000E-7	8.91670751E-5
2.21405000E+5	9.49996646E+1	0.00000000E+0	0.00000000E+0	-4.20000000E-13	1.51785000E-9	8.61693000E-7	8.94269603E-5
2.24467000E+5	9.59994003E+1	0.00000000E+0	0.00000000E+0	-3.80000000E-13	1.59973000E-9	9.12180000E-7	8.91113358E-5
2.27562000E+5	9.70007438E+1	0.00000000E+0	0.00000000E+0	-2.30000000E-13	1.67838000E-9	9.61085000E-7	8.91852724E-5
2.30687000E+5	9.79999318E+1	0.00000000E+0	0.00000000E+0	-3.40000000E-13	1.75887000E-9	1.01105000E-6	8.96167385E-5
2.33796000E+5	9.89995990E+1	0.00000000E+0	0.00000000E+0	-6.30000000E-13	1.83180000E-9	1.05668400E-6	8.95233350E-5
2.36862000E+5	9.99999835E+1	0.00000000E+0	0.00000000E+0	-5.50000000E-13	1.88458000E-9	1.09063200E-6	8.93207001E-5
2.39920000E+5	1.00999681E+2	0.00000000E+0	0.00000000E+0	-2.80000000E-13	1.83396000E-9	1.06497300E-6	8.94144433E-5
2.42981000E+5	1.02000088E+2	0.00000000E+0	0.00000000E+0	-4.80000000E-13	3.43100000E-11	2.13900000E-8	8.97387135E-5
