G:\BEAR_storage\User_Experiments\20220317_arneodo\file(1)_Region 6__0051.txt
Ring Energy (GeV): 2
Lifetime (hours): 15.3036
Scan beginning: 3/19/2022	10:55:12 AM
Ring current (mA): 308.71
Source position: x (mm): -0.004 x' (mrad): 0.002 y (mm): 0.001 y' (mrad): 0.004
Scan end: 3/19/2022	11:28:16 AM
Ring current (mA): 308.41
Source position: x (mm): -0.001 x' (mrad): 0 y (mm): 0.002 y' (mrad): 0.006

SCAN TYPE: PHOTON ENERGY VS VAR_1 VS VAR_2

FILE INFO: FILE INFO:

SCAN PARAMETERS
waiting time (ms): 1000
Number of scans: 1
Current scan number: 1
DARK OFF 
PREDARK OFF 

SCAN PARAMETERS
Regions configuration: 
number of regions: 7
Mirror grating scan: on
Timed acquisition: off
Region 1:
Initial energy (eV): 40.000000
Final energy (eV): 72.000000
Delta energy (eV): 1.000000
Deviation angle choice: Higher order rejection
Deviation angle (°): NaN
Al filter
G1200 channel
range keithley B 20 nA
range keithley C 2 uA
range keithley A 20 nA
Var_1: PsiC 0.000000
Var_2: PhiM0.000000
Bias CEM (V): 0.000000
Bias Keithley B (V): -30.000000
Name region: 
Region 2:
Initial energy (eV): 70.000000
Final energy (eV): 102.000000
Delta energy (eV): 1.000000
Deviation angle choice: Higher order rejection
Deviation angle (°): NaN
Si filter
G1200 channel
range keithley B 20 nA
range keithley C 2 uA
range keithley A 20 nA
Var_1: PsiC 0.000000
Var_2: PhiM0.000000
Bias CEM (V): 0.000000
Bias Keithley B (V): -30.000000
Name region: 
Region 3:
Initial energy (eV): 98.000000
Final energy (eV): 260.000000
Delta energy (eV): 1.000000
Deviation angle choice: Higher order rejection
Deviation angle (°): NaN
Full Beam
G1200 channel
range keithley B 20 nA
range keithley C 20 uA
range keithley A 200 nA
Var_1: PsiC 0.000000
Var_2: PhiM0.000000
Bias CEM (V): 0.000000
Bias Keithley B (V): -30.000000
Name region: 
Region 4:
Initial energy (eV): 255.000000
Final energy (eV): 320.000000
Delta energy (eV): 1.000000
Deviation angle choice: Higher order rejection
Deviation angle (°): NaN
filter Ag 0.6 um
G1200 channel
range keithley B 200 pA
range keithley C 2 uA
range keithley A 200 pA
Var_1: PsiC 0.000000
Var_2: PhiM0.000000
Bias CEM (V): 0.000000
Bias Keithley B (V): -30.000000
Name region: 
Region 5:
Initial energy (eV): 255.000000
Final energy (eV): 320.000000
Delta energy (eV): 1.000000
Deviation angle choice: Higher order rejection
Deviation angle (°): NaN
Full Beam
G1200 channel
range keithley B 200 pA
range keithley C 2 uA
range keithley A 20 nA
Var_1: PsiC 0.000000
Var_2: PhiM0.000000
Bias CEM (V): 0.000000
Bias Keithley B (V): -30.000000
Name region: 
Region 6:
Initial energy (eV): 315.000000
Final energy (eV): 1200.000000
Delta energy (eV): 5.000000
Deviation angle choice: Higher order rejection
Deviation angle (°): NaN
Full Beam
G1200 channel
range keithley B 20 nA
range keithley C 2 uA
range keithley A 20 nA
Var_1: PsiC 0.000000
Var_2: PhiM0.000000
Bias CEM (V): 0.000000
Bias Keithley B (V): -30.000000
Name region: 
Region 7:
Initial energy (eV): 1190.000000
Final energy (eV): 1500.000000
Delta energy (eV): 5.000000
Deviation angle choice: Higher order rejection
Deviation angle (°): NaN
filter Ag 0.6 um
G1200 channel
range keithley B 200 pA
range keithley C 2 uA
range keithley A 200 pA
Var_1: PsiC 0.000000
Var_2: PhiM0.000000
Bias CEM (V): 0.000000
Bias Keithley B (V): -30.000000
Name region: 

BEAR MONOCHROMATOR CONFIGURATION: 
Current Grating Position:     -30363.40
Current Mirror Position: 105172.2
Current Grating: G1200
P2 phiz position:  0.0000
Mono axis position: 25.0000
Current Photon Energy (eV): 272.995
Current Deviation Angle: 162.460
Vertical Exit Slits (um): 100.000
Exit slit y axis position: 1.3625
Horizontal Exit Slits (um):  889.156
Exit slit z axis position: 1.9229
Mitutoyo position (mm): 

Dose on sample (mJ/cm^2): NaN

ENERGY CALIBRATION:
offset grating G1200: yes
Delta 0 order G1200:  -800.0
offset grating G1800: not
Delta 0 order G1800:  0.0
offset grating GNIM: not
Delta 0 order GNIM:  0.0
ZERO ORDER POSITIONS:
Grating G1200: Mirror position:  4938.0
Grating position: -105355.0
Grating G1800: 
Mirror position:  4938.0
Grating position: -106345.0
Grating GNIM: 
Mirror position:  10000.0
Grating position: 227300.0

Initial filter: Full Beam

EXPERIMENTAL CHAMBER CONFIGURATION: 
PsiC (deg):   -0.000186
Phi Analyzer (degrees): 89.992308
Theta Manipulator (degrees): -44.000040
Theta Analyzer (degrees): -135.001468
PhiM (degrees): -0.004103
XM (mm): 0.000713
YM (mm): 19.932987
ZM (mm): (Warning: for kinetic energy scans, 
this parameter is given in the scan settings) 
-6.601438
TiltM (°): 0.000138

ELECTRON ANALYZER CONFIGURATION: 
Current Kinetik energy (eV): 35.0
Mode: DE = COST
Pass Energy (eV):  50.000
CEM: ON
Bias Front-Back CEM (V): 3499.561
Bias Back-Collector CEM (V): 100.874
Bias Retard-Front CEM: 100.087COIL VALUES
Ix (amps):2.820
Iy (amps): 6.789
Iz (amps): 37.337

POLARIZATION SELECTOR CONFIGURATION:
Psi1 (rad): -0.001665535
Psi2 (rad): 0.001417093
Z min position (mm): 46.599650
DZ position (mm): 18.599100
Zmin 0 (mm): 66.500000
DZ0 (mm): 53.000000

BEAM SELECTOR CONFIGURATION:
Zmin position (mm): NaN
DZ position (mm): NaN
Y+ position (mm): NaN
Y- position (mm): NaN

CHANNEL ELECTRON MULTIPLIER CONFIGURATION:
CEM configured: OFF
Bias CEM: 0.000000

FLUORESCENCE DETECTOR CONFIGURATION:
Not configured

LUMINESCENCE MONOCHROMATOR CONFIGURATION:
Optical fiber position (mm): 0.000000
Optical fiber Switch inside: OFF
Optical fiber Switch outside: ON
Monochromator wavelength (A): 0.000000
Limit Switches: ON

I0 MONITOR PARAMETERS:
I0 detector position(mm): -0.000000E+0
Lower switch: OFF
Upper switch: OFF
Valve status:open

PRESSURE PARAMETERS:
Monitor chamber pressure (mbar): 8.879e-10
Experimental chamber pressure -ION GAUGE-(mbar): 0.000000E+0

XMCD PARAMETERS:
Xmcd OFF
Xmcd Direction -
Xmcd current (A): 0.000000

Gated scan off

Instrument 1: AMMETER KEITHLEY 6517A B
Measure type: Current
range type: set range value
range value (ampere):  200 pA
Integration time:  set NPLC value
NPLC value: 10.000
Digital filter count: 2
SAMPLE BIAS (V): -30.000
Vsource: ON
Output Voltage value: 30.000
Vsource range: 1000 V

Range Keithley B changed to 20 nA

Range Keithley B changed to 200 pA

Range Keithley B changed to 20 nA

Range Keithley B changed to 200 pA

Range Keithley B changed to 20 nA

Range Keithley B changed to 200 pA

Range Keithley B changed to 20 nA

Range Keithley B changed to 200 nA

Range Keithley B changed to 200 pA

Range Keithley B changed to 20 nA

Range Keithley B changed to 200 pA

Range Keithley B changed to 20 nA

Range Keithley B changed to 200 pA

Range Keithley B changed to 20 nA

Range Keithley B changed to 200 pA

Range Keithley B changed to 20 nA

Range Keithley B changed to 200 pA

Range Keithley B changed to 20 nA

Range Keithley B changed to 200 pA

Range Keithley B changed to 20 nA

Range Keithley B changed to 200 pA

Range Keithley B changed to 20 nA

Range Keithley B changed to 200 pA

Range Keithley B changed to 20 nA

Range Keithley B changed to 200 pA

Range Keithley B changed to 20 nA

Range Keithley B changed to 200 pA

Range Keithley B changed to 20 nA

Range Keithley B changed to 200 pA

Range Keithley B changed to 20 nA

Range Keithley B changed to 200 pA

Range Keithley B changed to 20 nA

Range Keithley B changed to 200 pA

Range Keithley B changed to 20 nA

Range Keithley B changed to 200 pA

Range Keithley B changed to 20 nA

Range Keithley B changed to 200 pA

Instrument 2: AMMETER KEITHLEY 6517A A
Measure type: Current
range type: set range value
range value (ampere):  200 nA
Integration time:  set NPLC value
NPLC value: 10.000
Digital filter count: 2
Vsource: OFF
Output Voltage value: -0.000
Vsource range: 100 V
Trigger source: bus

Range Keithley A changed to 20 nA

Range Keithley A changed to 200 nA

Range Keithley A changed to 200 pA

Range Keithley A changed to 20 nA

Range Keithley A changed to 200 pA

Range Keithley A changed to 20 nA

Range Keithley A changed to 200 nA

Range Keithley A changed to 200 pA

Range Keithley A changed to 20 nA

Range Keithley A changed to 200 pA

Range Keithley A changed to 20 nA

Range Keithley A changed to 200 nA

Range Keithley A changed to 200 pA

Range Keithley A changed to 20 nA

Range Keithley A changed to 200 pA

Range Keithley A changed to 20 nA

Range Keithley A changed to 200 pA

Range Keithley A changed to 20 nA

Range Keithley A changed to 200 pA

Range Keithley A changed to 20 nA

Range Keithley A changed to 200 pA

Range Keithley A changed to 20 nA

Range Keithley A changed to 200 nA

Range Keithley A changed to 200 pA

Range Keithley A changed to 20 nA

Range Keithley A changed to 200 pA

Range Keithley A changed to 20 nA

Range Keithley A changed to 200 nA

Range Keithley A changed to 200 pA

Range Keithley A changed to 20 nA

Range Keithley A changed to 200 nA

Range Keithley A changed to 200 pA

Range Keithley A changed to 20 nA

Range Keithley A changed to 200 pA

Range Keithley A changed to 20 nA

Range Keithley A changed to 200 pA

Range Keithley A changed to 20 nA

Range Keithley A changed to 200 nA

Range Keithley A changed to 200 pA

Range Keithley A changed to 20 nA

Range Keithley A changed to 200 pA

Range Keithley A changed to 20 nA

Range Keithley A changed to 200 nA

Range Keithley A changed to 20 nA

Range Keithley A changed to 200 nA

Range Keithley A changed to 200 pA

Range Keithley A changed to 20 nA

Range Keithley A changed to 200 nA

Range Keithley A changed to 2 uA

Range Keithley A changed to 20 nA

Range Keithley A changed to 200 nA

Range Keithley A changed to 2 uA

Range Keithley A changed to 20 nA

Range Keithley A changed to 200 nA

Range Keithley A changed to 200 pA

Range Keithley A changed to 2 uA

Range Keithley A changed to 20 nA

Range Keithley A changed to 200 nA

Range Keithley A changed to 200 pA

Range Keithley A changed to 20 nA

Range Keithley A changed to 2 uA

Range Keithley A changed to 20 nA

Range Keithley A changed to 200 nA

Range Keithley A changed to 20 nA

Range Keithley A changed to 200 nA

Range Keithley A changed to 200 pA

Range Keithley A changed to 2 uA

Range Keithley A changed to 20 nA

Range Keithley A changed to 200 nA

Range Keithley A changed to 20 nA

Range Keithley A changed to 200 nA

Range Keithley A changed to 200 pA

Range Keithley A changed to 20 nA

Range Keithley A changed to 200 nA

Range Keithley A changed to 20 nA

Range Keithley A changed to 200 nA

Range Keithley A changed to 200 pA

Range Keithley A changed to 20 nA

Range Keithley A changed to 200 nA

Range Keithley A changed to 200 pA

Range Keithley A changed to 20 nA

Range Keithley A changed to 200 pA

Instrument 3: AMMETER KEITHLEY 6517A C 
Measure type: Current
range type: set range value
range value (ampere):  2 uA
Integration time:  set NPLC value
NPLC value: 10.000
Digital filter count: 2
Vsource: OFF
Output Voltage value: -0.000
Vsource range: 100 V
Trigger source: bus


Range Keithley C changed to 20 uA


Range Keithley C changed to 2 uA


Range Keithley C changed to 200 uA


Range Keithley C changed to 2 uA


Range Keithley C changed to 20 uA


Range Keithley C changed to 200 uA


Range Keithley C changed to 2 uA


Range Keithley C changed to 20 uA


Range Keithley C changed to 2 uA


Range Keithley C changed to 20 uA


Range Keithley C changed to 200 uA


Range Keithley C changed to 2 uA


Range Keithley C changed to 20 uA


Range Keithley C changed to 2 uA


Range Keithley C changed to 20 uA


Range Keithley C changed to 2 uA


Range Keithley C changed to 20 uA


Range Keithley C changed to 2 uA


________________________________________________________________________________

RelativeTime (msec)	Photon Energy	Var_1	Var_2	INSTR_1_Sample with Bias _(ampere ) 	INSTR_2_Monitor IM_(ampere)  	INSTR_3_Diode A3_(ampere)	I_BPM_sum (Amps)	
________________________________________________________________________________

1.36395600E+6	3.14983596E+2	0.00000000E+0	0.00000000E+0	-2.40000000E-13	1.46126000E-9	3.52310000E-8	8.90685307E-5
1.36870800E+6	3.20019514E+2	0.00000000E+0	0.00000000E+0	-4.80000000E-13	1.53360000E-9	4.74760000E-8	8.96938312E-5
1.37248400E+6	3.25002885E+2	0.00000000E+0	0.00000000E+0	-3.80000000E-13	1.52681000E-9	4.96780000E-8	8.92027246E-5
1.37617100E+6	3.29989824E+2	0.00000000E+0	0.00000000E+0	-2.90000000E-13	1.51002000E-9	4.89040000E-8	8.94843953E-5
1.37993800E+6	3.34991491E+2	0.00000000E+0	0.00000000E+0	-1.40000000E-13	1.48717000E-9	4.86930000E-8	8.92056154E-5
1.38361400E+6	3.39984868E+2	0.00000000E+0	0.00000000E+0	-3.90000000E-13	1.53256000E-9	5.24720000E-8	8.92201947E-5
1.38741500E+6	3.45022310E+2	0.00000000E+0	0.00000000E+0	-3.00000000E-13	1.55323000E-9	5.62830000E-8	8.94749271E-5
1.39105600E+6	3.50009528E+2	0.00000000E+0	0.00000000E+0	-4.40000000E-13	1.51906000E-9	5.68090000E-8	8.90395330E-5
1.39497800E+6	3.55011932E+2	0.00000000E+0	0.00000000E+0	-3.00000000E-13	1.53482000E-9	5.79420000E-8	8.91440349E-5
1.39890000E+6	3.59980976E+2	0.00000000E+0	0.00000000E+0	-5.10000000E-13	1.59527000E-9	6.03730000E-8	8.91159194E-5
1.40285200E+6	3.64977867E+2	0.00000000E+0	0.00000000E+0	-2.40000000E-13	1.69273000E-9	6.41160000E-8	8.90310066E-5
1.40677700E+6	3.69996504E+2	0.00000000E+0	0.00000000E+0	-5.20000000E-13	1.77070000E-9	6.72730000E-8	8.91899334E-5
1.41069600E+6	3.75043767E+2	0.00000000E+0	0.00000000E+0	-3.10000000E-13	1.81115000E-9	6.95720000E-8	8.94079822E-5
1.41463400E+6	3.79987886E+2	0.00000000E+0	0.00000000E+0	-5.00000000E-13	1.84297000E-9	7.23980000E-8	8.94954341E-5
1.41855200E+6	3.84994043E+2	0.00000000E+0	0.00000000E+0	-3.00000000E-13	1.91260000E-9	7.68720000E-8	8.92414766E-5
1.42246600E+6	3.89958528E+2	0.00000000E+0	0.00000000E+0	-5.30000000E-13	2.01489000E-9	8.25050000E-8	8.90018331E-5
1.42639500E+6	3.95036800E+2	0.00000000E+0	0.00000000E+0	-4.70000000E-13	2.09178000E-9	8.73240000E-8	8.90013980E-5
1.43034100E+6	4.00023046E+2	0.00000000E+0	0.00000000E+0	-1.00000000E-13	2.13105000E-9	9.07890000E-8	8.90312927E-5
1.43427400E+6	4.04984475E+2	0.00000000E+0	0.00000000E+0	-1.20000000E-13	2.16490000E-9	9.37800000E-8	8.91139494E-5
1.43823800E+6	4.09976102E+2	0.00000000E+0	0.00000000E+0	-3.20000000E-13	2.14505000E-9	8.33210000E-8	8.91394990E-5
1.44224400E+6	4.14979546E+2	0.00000000E+0	0.00000000E+0	-4.70000000E-13	2.35172000E-9	9.89120000E-8	8.93129694E-5
1.44617700E+6	4.20033702E+2	0.00000000E+0	0.00000000E+0	-7.00000000E-13	2.37372000E-9	9.43120000E-8	8.90953200E-5
1.45021000E+6	4.25014831E+2	0.00000000E+0	0.00000000E+0	-6.80000000E-13	2.54790000E-9	1.09451000E-7	8.93561053E-5
1.45414700E+6	4.29993385E+2	0.00000000E+0	0.00000000E+0	-2.30000000E-13	2.67491000E-9	1.21790000E-7	8.93289494E-5
1.45820600E+6	4.34971769E+2	0.00000000E+0	0.00000000E+0	-4.10000000E-13	2.80541000E-9	1.34014000E-7	8.91287999E-5
1.46216900E+6	4.39994132E+2	0.00000000E+0	0.00000000E+0	-4.90000000E-13	2.94198000E-9	1.45102000E-7	8.91995209E-5
1.46609300E+6	4.45033020E+2	0.00000000E+0	0.00000000E+0	-5.00000000E-14	3.03570000E-9	1.53330000E-7	8.91624676E-5
1.47013600E+6	4.50007294E+2	0.00000000E+0	0.00000000E+0	-7.10000000E-13	3.14713000E-9	1.61215000E-7	8.90630530E-5
1.47377200E+6	4.54979673E+2	0.00000000E+0	0.00000000E+0	-5.40000000E-13	3.18649000E-9	1.65077000E-7	8.91145485E-5
1.47755400E+6	4.59987102E+2	0.00000000E+0	0.00000000E+0	-3.50000000E-13	3.24426000E-9	1.70224000E-7	8.92587381E-5
1.48121100E+6	4.64995925E+2	0.00000000E+0	0.00000000E+0	-5.10000000E-13	3.31442000E-9	1.75990000E-7	8.89382081E-5
1.48491000E+6	4.69999612E+2	0.00000000E+0	0.00000000E+0	-5.50000000E-13	3.36620000E-9	1.81025000E-7	8.87275831E-5
1.48858500E+6	4.75020925E+2	0.00000000E+0	0.00000000E+0	-5.80000000E-13	3.39121000E-9	1.84699000E-7	8.89669077E-5
1.49225300E+6	4.80013877E+2	0.00000000E+0	0.00000000E+0	9.00000000E-14	3.41720000E-9	1.88479000E-7	8.91305106E-5
1.49600400E+6	4.84978786E+2	0.00000000E+0	0.00000000E+0	-4.60000000E-13	3.47335000E-9	1.93851000E-7	8.92131286E-5
1.49975800E+6	4.89982980E+2	0.00000000E+0	0.00000000E+0	-2.20000000E-13	3.54769000E-9	2.00182000E-7	8.90991168E-5
1.50351000E+6	4.94990112E+2	0.00000000E+0	0.00000000E+0	-1.60000000E-13	3.62458000E-9	2.06653000E-7	8.90425907E-5
1.50729200E+6	4.99992371E+2	0.00000000E+0	0.00000000E+0	-2.80000000E-13	3.69337000E-9	2.12765000E-7	8.88871984E-5
1.51094200E+6	5.05029590E+2	0.00000000E+0	0.00000000E+0	-1.00000000E-14	3.72035000E-9	2.16876000E-7	8.90162187E-5
1.51470800E+6	5.09996382E+2	0.00000000E+0	0.00000000E+0	-5.70000000E-13	3.69703000E-9	2.18499000E-7	8.91237306E-5
1.51913000E+6	5.15010082E+2	0.00000000E+0	0.00000000E+0	-3.60000000E-13	3.64638000E-9	2.18535000E-7	8.91461121E-5
1.52287600E+6	5.19989346E+2	0.00000000E+0	0.00000000E+0	-4.40000000E-13	3.57554000E-9	2.17136000E-7	8.88122128E-5
1.52653000E+6	5.24987161E+2	0.00000000E+0	0.00000000E+0	-4.10000000E-13	3.46814000E-9	2.13081000E-7	8.86051671E-5
1.53020300E+6	5.29984376E+2	0.00000000E+0	0.00000000E+0	-5.80000000E-13	3.33738000E-9	2.07053000E-7	8.89042185E-5
1.53385700E+6	5.34994971E+2	0.00000000E+0	0.00000000E+0	-5.20000000E-13	3.22083000E-9	2.01610000E-7	8.89817314E-5
1.53762700E+6	5.39997950E+2	0.00000000E+0	0.00000000E+0	-9.00000000E-14	3.45742000E-9	2.18295000E-7	8.89232175E-5
1.54137900E+6	5.45028859E+2	0.00000000E+0	0.00000000E+0	-5.40000000E-13	3.73092000E-9	2.35019000E-7	8.86716501E-5
1.54515200E+6	5.50002707E+2	0.00000000E+0	0.00000000E+0	-4.70000000E-13	4.08520000E-9	2.48220000E-7	8.94241380E-5
1.54890900E+6	5.54990176E+2	0.00000000E+0	0.00000000E+0	-2.80000000E-13	4.26172000E-9	2.17898000E-7	8.90619593E-5
1.55266800E+6	5.59985779E+2	0.00000000E+0	0.00000000E+0	-4.20000000E-13	4.49056000E-9	2.50665000E-7	8.88099061E-5
1.55644600E+6	5.64977789E+2	0.00000000E+0	0.00000000E+0	-5.80000000E-13	4.67941000E-9	2.77214000E-7	8.90460359E-5
1.56012000E+6	5.70002070E+2	0.00000000E+0	0.00000000E+0	-4.50000000E-13	4.93113000E-9	3.01273000E-7	8.89491813E-5
1.56386000E+6	5.75007602E+2	0.00000000E+0	0.00000000E+0	-3.80000000E-13	5.20139000E-9	3.22546000E-7	8.85744498E-5
1.56752800E+6	5.80011442E+2	0.00000000E+0	0.00000000E+0	-4.80000000E-13	5.39275000E-9	3.39843000E-7	8.89135646E-5
1.57137000E+6	5.85017400E+2	0.00000000E+0	0.00000000E+0	-3.40000000E-13	5.46312000E-9	3.50866000E-7	8.88806389E-5
1.57517200E+6	5.89977393E+2	0.00000000E+0	0.00000000E+0	-2.00000000E-13	5.59353000E-9	3.65207000E-7	8.89295267E-5
1.57882100E+6	5.94998890E+2	0.00000000E+0	0.00000000E+0	-2.40000000E-13	5.78718000E-9	3.83406000E-7	8.89674650E-5
1.58246000E+6	5.99979135E+2	0.00000000E+0	0.00000000E+0	-3.50000000E-13	6.02436000E-9	4.04318000E-7	8.93452810E-5
1.58611200E+6	6.05007513E+2	0.00000000E+0	0.00000000E+0	-3.80000000E-13	6.25660000E-9	4.25044000E-7	8.92065512E-5
1.58979800E+6	6.09988943E+2	0.00000000E+0	0.00000000E+0	-4.60000000E-13	6.47326000E-9	4.45224000E-7	8.93964159E-5
1.59350900E+6	6.15057035E+2	0.00000000E+0	0.00000000E+0	-3.00000000E-13	6.62335000E-9	4.61149000E-7	8.91621964E-5
1.59725400E+6	6.19976766E+2	0.00000000E+0	0.00000000E+0	-6.00000000E-13	6.75399000E-9	4.75463000E-7	8.91261922E-5
1.60102900E+6	6.24986276E+2	0.00000000E+0	0.00000000E+0	-2.80000000E-13	6.91576000E-9	4.91648000E-7	8.92303633E-5
1.60477300E+6	6.29975557E+2	0.00000000E+0	0.00000000E+0	-6.60000000E-13	7.23788000E-9	5.19658000E-7	8.90747296E-5
1.60855600E+6	6.34983190E+2	0.00000000E+0	0.00000000E+0	-2.80000000E-13	7.91205000E-9	5.74420000E-7	8.90772657E-5
1.61224700E+6	6.39989348E+2	0.00000000E+0	0.00000000E+0	-2.40000000E-13	8.36855000E-9	6.14150000E-7	8.96602350E-5
1.61601000E+6	6.45031285E+2	0.00000000E+0	0.00000000E+0	-3.00000000E-13	8.65912000E-9	6.42268000E-7	8.85587083E-5
1.61965000E+6	6.50022506E+2	0.00000000E+0	0.00000000E+0	-5.40000000E-13	8.85762000E-9	6.63512000E-7	8.88895230E-5
1.62340900E+6	6.55002253E+2	0.00000000E+0	0.00000000E+0	-4.40000000E-13	9.06932000E-9	6.87005000E-7	8.89590995E-5
1.62720500E+6	6.59981407E+2	0.00000000E+0	0.00000000E+0	-4.80000000E-13	9.38317000E-9	7.19936000E-7	8.89572846E-5
1.63096700E+6	6.64972679E+2	0.00000000E+0	0.00000000E+0	-6.50000000E-13	9.70463000E-9	7.53772000E-7	8.89945345E-5
1.63476000E+6	6.69995752E+2	0.00000000E+0	0.00000000E+0	-2.80000000E-13	1.00133200E-8	7.86455000E-7	8.93543737E-5
1.63849000E+6	6.74996253E+2	0.00000000E+0	0.00000000E+0	-2.70000000E-13	1.02829200E-8	8.16897000E-7	8.86819409E-5
1.64215700E+6	6.80035025E+2	0.00000000E+0	0.00000000E+0	-3.00000000E-13	1.05151000E-8	8.45925000E-7	8.87384073E-5
1.64582700E+6	6.85019924E+2	0.00000000E+0	0.00000000E+0	-7.50000000E-13	1.07317900E-8	8.75097000E-7	8.92684238E-5
1.64963300E+6	6.89985756E+2	0.00000000E+0	0.00000000E+0	-1.40000000E-13	1.09382600E-8	9.03580000E-7	8.86497961E-5
1.65337200E+6	6.94990010E+2	0.00000000E+0	0.00000000E+0	-3.90000000E-13	1.11610100E-8	9.33241000E-7	8.88918923E-5
1.65706500E+6	6.99982648E+2	0.00000000E+0	0.00000000E+0	-4.50000000E-13	1.13967100E-8	9.63482000E-7	8.91734677E-5
1.66072400E+6	7.04979256E+2	0.00000000E+0	0.00000000E+0	-3.50000000E-13	1.16516400E-8	9.91440000E-7	8.93659907E-5
1.66450100E+6	7.10006471E+2	0.00000000E+0	0.00000000E+0	-5.30000000E-13	1.18701800E-8	1.01948100E-6	8.94539075E-5
1.66828900E+6	7.15022030E+2	0.00000000E+0	0.00000000E+0	-4.30000000E-13	1.19969600E-8	1.04461600E-6	8.93897521E-5
1.67206400E+6	7.20008630E+2	0.00000000E+0	0.00000000E+0	-6.00000000E-14	1.20411300E-8	1.06219100E-6	8.91191172E-5
1.67592800E+6	7.24982959E+2	0.00000000E+0	0.00000000E+0	-6.00000000E-14	1.20761000E-8	1.07691400E-6	8.87777554E-5
1.67968100E+6	7.29989553E+2	0.00000000E+0	0.00000000E+0	-5.10000000E-13	1.22188100E-8	1.10320700E-6	8.91030448E-5
1.68344600E+6	7.34986426E+2	0.00000000E+0	0.00000000E+0	-4.00000000E-13	1.22245700E-8	1.11538200E-6	8.92115193E-5
1.68723500E+6	7.39995495E+2	0.00000000E+0	0.00000000E+0	-3.60000000E-13	1.23430300E-8	1.13943600E-6	8.85924475E-5
1.69094500E+6	7.45025502E+2	0.00000000E+0	0.00000000E+0	-5.70000000E-13	1.24097000E-8	1.15975500E-6	8.89720069E-5
1.69467200E+6	7.50000284E+2	0.00000000E+0	0.00000000E+0	1.80000000E-13	1.24779400E-8	1.18282800E-6	8.90006112E-5
1.69818400E+6	7.55003267E+2	0.00000000E+0	0.00000000E+0	-3.10000000E-13	1.25967000E-8	1.21216500E-6	8.90911417E-5
1.70170800E+6	7.60001729E+2	0.00000000E+0	0.00000000E+0	-4.00000000E-13	1.27459000E-8	1.24535000E-6	8.88410734E-5
1.70598800E+6	7.64999095E+2	0.00000000E+0	0.00000000E+0	-6.00000000E-13	1.27782400E-8	1.26658100E-6	8.89746087E-5
1.70947300E+6	7.69995185E+2	0.00000000E+0	0.00000000E+0	-4.60000000E-13	1.27387000E-8	1.28054900E-6	8.86521147E-5
1.71295900E+6	7.74992447E+2	0.00000000E+0	0.00000000E+0	-4.50000000E-13	1.27340800E-8	1.29865100E-6	8.90459256E-5
1.71646700E+6	7.79992331E+2	0.00000000E+0	0.00000000E+0	-3.80000000E-13	1.28068300E-8	1.32590800E-6	8.89722930E-5
1.71999300E+6	7.84996621E+2	0.00000000E+0	0.00000000E+0	-1.70000000E-13	1.29398600E-8	1.36060900E-6	8.89209108E-5
1.72348700E+6	7.90001521E+2	0.00000000E+0	0.00000000E+0	-3.30000000E-13	1.30364100E-8	1.39240300E-6	8.89437782E-5
1.72696600E+6	7.95010803E+2	0.00000000E+0	0.00000000E+0	-1.50000000E-13	1.30419100E-8	1.41563200E-6	8.86409269E-5
1.73044200E+6	8.00003475E+2	0.00000000E+0	0.00000000E+0	-3.90000000E-13	1.29922200E-8	1.43454900E-6	8.85982112E-5
1.73396800E+6	8.05014666E+2	0.00000000E+0	0.00000000E+0	-4.60000000E-13	1.28898500E-8	1.44931700E-6	8.88078348E-5
1.73743200E+6	8.09996470E+2	0.00000000E+0	0.00000000E+0	-5.00000000E-13	1.27462000E-8	1.45997000E-6	8.85869787E-5
1.74090800E+6	8.14994719E+2	0.00000000E+0	0.00000000E+0	-3.90000000E-13	1.25722100E-8	1.46758100E-6	8.86948542E-5
1.74436600E+6	8.19980780E+2	0.00000000E+0	0.00000000E+0	-5.90000000E-13	1.24027700E-8	1.47546000E-6	8.89535503E-5
1.74788000E+6	8.25005965E+2	0.00000000E+0	0.00000000E+0	-1.70000000E-13	1.22573500E-8	1.48552300E-6	8.86875467E-5
1.75134800E+6	8.29995247E+2	0.00000000E+0	0.00000000E+0	-4.50000000E-13	1.21282200E-8	1.49717500E-6	8.87505220E-5
1.75485600E+6	8.34992375E+2	0.00000000E+0	0.00000000E+0	-2.80000000E-13	1.19817100E-8	1.50668600E-6	8.87302951E-5
1.75838800E+6	8.39991163E+2	0.00000000E+0	0.00000000E+0	-3.40000000E-13	1.18135600E-8	1.51367100E-6	8.88189511E-5
1.76185900E+6	8.45012537E+2	0.00000000E+0	0.00000000E+0	-4.00000000E-13	1.16305500E-8	1.52024100E-6	8.88812797E-5
1.76531000E+6	8.50015159E+2	0.00000000E+0	0.00000000E+0	-5.00000000E-14	1.14505900E-8	1.52863100E-6	8.89571445E-5
1.76820900E+6	8.55005710E+2	0.00000000E+0	0.00000000E+0	-7.60000000E-13	1.12668700E-8	1.53537000E-6	8.85662006E-5
1.77116800E+6	8.60006006E+2	0.00000000E+0	0.00000000E+0	-2.30000000E-13	1.10960900E-8	1.54450100E-6	8.87658940E-5
1.77408600E+6	8.64988219E+2	0.00000000E+0	0.00000000E+0	-3.00000000E-13	1.09324500E-8	1.55445300E-6	8.85040925E-5
1.77704200E+6	8.70010803E+2	0.00000000E+0	0.00000000E+0	-3.00000000E-13	1.07725300E-8	1.56530500E-6	8.88548242E-5
1.78000700E+6	8.74997912E+2	0.00000000E+0	0.00000000E+0	-3.70000000E-13	1.06115500E-8	1.57625500E-6	8.87102590E-5
1.78294400E+6	8.79997910E+2	0.00000000E+0	0.00000000E+0	-3.80000000E-13	1.04478200E-8	1.58670300E-6	8.85774897E-5
1.78585100E+6	8.84993476E+2	0.00000000E+0	0.00000000E+0	-1.70000000E-13	1.02844600E-8	1.59715000E-6	8.89049785E-5
1.78876300E+6	8.90001423E+2	0.00000000E+0	0.00000000E+0	-1.50000000E-13	1.01299900E-8	1.60894900E-6	8.84723590E-5
1.79172400E+6	8.94993913E+2	0.00000000E+0	0.00000000E+0	-3.30000000E-13	9.97465000E-9	1.62043400E-6	8.87287544E-5
1.79463600E+6	8.99988429E+2	0.00000000E+0	0.00000000E+0	-3.70000000E-13	9.82579000E-9	1.63253600E-6	8.87511627E-5
1.79752400E+6	9.04998153E+2	0.00000000E+0	0.00000000E+0	-5.20000000E-13	9.68348000E-9	1.64579700E-6	8.88876127E-5
1.80043400E+6	9.10007234E+2	0.00000000E+0	0.00000000E+0	-3.60000000E-13	9.54174000E-9	1.65788000E-6	8.90715169E-5
1.80331600E+6	9.14990636E+2	0.00000000E+0	0.00000000E+0	-6.10000000E-13	9.38758000E-9	1.66751300E-6	8.89622556E-5
1.80623500E+6	9.19994359E+2	0.00000000E+0	0.00000000E+0	-1.90000000E-13	9.22944000E-9	1.67617300E-6	8.90411394E-5
1.80902100E+6	9.24977921E+2	0.00000000E+0	0.00000000E+0	-7.20000000E-13	9.07186000E-9	1.68408400E-6	8.89403270E-5
1.81191200E+6	9.30019714E+2	0.00000000E+0	0.00000000E+0	-5.40000000E-13	8.91071000E-9	1.69034000E-6	8.94851881E-5
1.81480500E+6	9.34983432E+2	0.00000000E+0	0.00000000E+0	-7.60000000E-13	8.74410000E-9	1.69407100E-6	8.91016590E-5
1.81771500E+6	9.39992867E+2	0.00000000E+0	0.00000000E+0	-3.40000000E-13	8.56887000E-9	1.69518600E-6	8.90466498E-5
1.82062500E+6	9.44994544E+2	0.00000000E+0	0.00000000E+0	-3.20000000E-13	8.38016000E-9	1.69221000E-6	8.92524408E-5
1.82342400E+6	9.49986354E+2	0.00000000E+0	0.00000000E+0	-5.10000000E-13	8.20939000E-9	1.68885600E-6	8.91870486E-5
1.82621600E+6	9.55015791E+2	0.00000000E+0	0.00000000E+0	-2.70000000E-13	8.04365000E-9	1.68918700E-6	8.91040789E-5
1.82896500E+6	9.59969223E+2	0.00000000E+0	0.00000000E+0	-5.00000000E-13	7.88032000E-9	1.68710700E-6	8.92180370E-5
1.83173600E+6	9.65005565E+2	0.00000000E+0	0.00000000E+0	-3.10000000E-13	7.72612000E-9	1.68599900E-6	8.90551494E-5
1.83455000E+6	9.70007618E+2	0.00000000E+0	0.00000000E+0	-4.30000000E-13	7.58031000E-9	1.68373900E-6	8.92886864E-5
1.83732800E+6	9.75007279E+2	0.00000000E+0	0.00000000E+0	-5.60000000E-13	7.44588000E-9	1.68561200E-6	8.89920549E-5
1.84007700E+6	9.80000146E+2	0.00000000E+0	0.00000000E+0	-4.30000000E-13	7.32239000E-9	1.68819200E-6	8.91220616E-5
1.84284100E+6	9.84992311E+2	0.00000000E+0	0.00000000E+0	-4.90000000E-13	7.20177000E-9	1.69031400E-6	8.88764368E-5
1.84559000E+6	9.89994489E+2	0.00000000E+0	0.00000000E+0	-5.00000000E-13	7.07913000E-9	1.69039300E-6	8.93638866E-5
1.84838300E+6	9.94995070E+2	0.00000000E+0	0.00000000E+0	-4.20000000E-13	6.95809000E-9	1.69018700E-6	8.94966590E-5
1.85112200E+6	1.00000947E+3	0.00000000E+0	0.00000000E+0	-2.10000000E-13	6.84148000E-9	1.68993600E-6	8.92097848E-5
1.85388500E+6	1.00499480E+3	0.00000000E+0	0.00000000E+0	-3.60000000E-13	6.72531000E-9	1.68835400E-6	8.88076411E-5
1.85664500E+6	1.01000379E+3	0.00000000E+0	0.00000000E+0	-3.20000000E-13	6.60991000E-9	1.68580700E-6	8.91821491E-5
1.86014000E+6	1.01499939E+3	0.00000000E+0	0.00000000E+0	-1.90000000E-13	6.49544000E-9	1.68239200E-6	8.91241716E-5
1.86290000E+6	1.02000668E+3	0.00000000E+0	0.00000000E+0	-6.60000000E-13	6.38421000E-9	1.67910300E-6	8.92264741E-5
1.86564500E+6	1.02499119E+3	0.00000000E+0	0.00000000E+0	-2.70000000E-13	6.27926000E-9	1.67618600E-6	8.85327892E-5
1.86845700E+6	1.02999219E+3	0.00000000E+0	0.00000000E+0	-4.70000000E-13	6.17757000E-9	1.67298400E-6	8.92638879E-5
1.87121200E+6	1.03500609E+3	0.00000000E+0	0.00000000E+0	-2.10000000E-13	6.07428000E-9	1.66802000E-6	8.92374980E-5
1.87403800E+6	1.04000639E+3	0.00000000E+0	0.00000000E+0	-5.20000000E-13	5.96466000E-9	1.65897600E-6	8.91824173E-5
1.87680900E+6	1.04500347E+3	0.00000000E+0	0.00000000E+0	-2.20000000E-13	5.85428000E-9	1.64903900E-6	8.87675272E-5
1.87955000E+6	1.04999126E+3	0.00000000E+0	0.00000000E+0	-3.80000000E-13	5.74036000E-9	1.63695000E-6	8.91626375E-5
1.88275700E+6	1.05497278E+3	0.00000000E+0	0.00000000E+0	-3.20000000E-13	5.66606000E-9	1.63597400E-6	8.90024917E-5
1.88596700E+6	1.06000778E+3	0.00000000E+0	0.00000000E+0	-2.80000000E-13	5.58105000E-9	1.63112800E-6	8.88437228E-5
1.88911400E+6	1.06500657E+3	0.00000000E+0	0.00000000E+0	-2.40000000E-13	5.49920000E-9	1.62589800E-6	8.88723330E-5
1.89218800E+6	1.07002341E+3	0.00000000E+0	0.00000000E+0	-1.40000000E-13	5.40607000E-9	1.61676000E-6	8.88860361E-5
1.89538100E+6	1.07498317E+3	0.00000000E+0	0.00000000E+0	-6.00000000E-13	5.31059000E-9	1.60577600E-6	8.88962345E-5
1.89848200E+6	1.08003580E+3	0.00000000E+0	0.00000000E+0	-4.50000000E-13	5.20603000E-9	1.59108400E-6	8.85343776E-5
1.90165300E+6	1.08496181E+3	0.00000000E+0	0.00000000E+0	-3.10000000E-13	5.09656000E-9	1.57355700E-6	8.87676255E-5
1.90473200E+6	1.09003391E+3	0.00000000E+0	0.00000000E+0	-6.00000000E-13	4.99234000E-9	1.55694600E-6	8.91700881E-5
1.90787100E+6	1.09496791E+3	0.00000000E+0	0.00000000E+0	-1.10000000E-13	4.90039000E-9	1.54329800E-6	8.85427163E-5
1.91106300E+6	1.10000973E+3	0.00000000E+0	0.00000000E+0	-2.10000000E-13	4.80852000E-9	1.52873900E-6	8.92981785E-5
1.91424800E+6	1.10498936E+3	0.00000000E+0	0.00000000E+0	-4.70000000E-13	4.71588000E-9	1.51276300E-6	8.90308129E-5
1.91734700E+6	1.11002396E+3	0.00000000E+0	0.00000000E+0	-4.10000000E-13	4.62645000E-9	1.49643000E-6	8.90501128E-5
1.92055800E+6	1.11498731E+3	0.00000000E+0	0.00000000E+0	-1.70000000E-13	4.53639000E-9	1.47879200E-6	8.88456212E-5
1.92377300E+6	1.11999080E+3	0.00000000E+0	0.00000000E+0	-5.10000000E-13	4.44650000E-9	1.46018300E-6	8.86504607E-5
1.92698300E+6	1.12500921E+3	0.00000000E+0	0.00000000E+0	-2.00000000E-13	4.35623000E-9	1.44057400E-6	8.90755700E-5
1.93006900E+6	1.12998817E+3	0.00000000E+0	0.00000000E+0	-1.40000000E-13	4.26597000E-9	1.42023800E-6	8.88020591E-5
1.93322100E+6	1.13500163E+3	0.00000000E+0	0.00000000E+0	-4.50000000E-13	4.17808000E-9	1.39944300E-6	8.90613394E-5
1.93640300E+6	1.13998839E+3	0.00000000E+0	0.00000000E+0	-3.80000000E-13	4.08734000E-9	1.37670300E-6	8.83850859E-5
1.93949000E+6	1.14500329E+3	0.00000000E+0	0.00000000E+0	-4.90000000E-13	3.99341000E-9	1.35202300E-6	8.88936924E-5
1.94271500E+6	1.14998592E+3	0.00000000E+0	0.00000000E+0	-1.80000000E-13	3.89800000E-9	1.32589400E-6	8.88347255E-5
1.94582600E+6	1.15498484E+3	0.00000000E+0	0.00000000E+0	-2.80000000E-13	3.79250000E-9	1.29537800E-6	8.89877545E-5
1.94889300E+6	1.16000900E+3	0.00000000E+0	0.00000000E+0	-5.60000000E-13	3.64065000E-9	1.24865100E-6	8.90312331E-5
1.95196200E+6	1.16501820E+3	0.00000000E+0	0.00000000E+0	-5.50000000E-13	3.44329000E-9	1.18532900E-6	8.86874394E-5
1.95516200E+6	1.16996703E+3	0.00000000E+0	0.00000000E+0	-2.60000000E-13	3.24399000E-9	1.11986600E-6	8.91357469E-5
1.95835000E+6	1.17501954E+3	0.00000000E+0	0.00000000E+0	-7.40000000E-13	3.04508000E-9	1.05353600E-6	8.87271808E-5
1.96156500E+6	1.18001173E+3	0.00000000E+0	0.00000000E+0	-5.50000000E-13	2.84723000E-9	9.86446000E-7	8.90448855E-5
1.96465800E+6	1.18498492E+3	0.00000000E+0	0.00000000E+0	-4.60000000E-13	2.65353000E-9	9.20124000E-7	8.89732377E-5
1.96790600E+6	1.19000448E+3	0.00000000E+0	0.00000000E+0	-2.30000000E-13	2.46344000E-9	8.54592000E-7	8.90042590E-5
1.97107700E+6	1.19500134E+3	0.00000000E+0	0.00000000E+0	-5.40000000E-13	2.27694000E-9	7.89639000E-7	8.89971541E-5
1.97416100E+6	1.19999108E+3	0.00000000E+0	0.00000000E+0	-4.80000000E-13	2.09439000E-9	7.25927000E-7	8.89731662E-5
