G:\BEAR_storage\User_Experiments\20220317_arneodo\file(1)_Region 7__0085.txt
Ring Energy (GeV): 2
Lifetime (hours): 15.7742
Scan beginning: 3/22/2022	2:55:31 AM
Ring current (mA): 309.17
Source position: x (mm): 0.008 x' (mrad): -0.001 y (mm): -0.001 y' (mrad): 0.002
Scan end: 3/22/2022	4:09:27 AM
Ring current (mA): 308.33
Source position: x (mm): 0.008 x' (mrad): 0.001 y (mm): -0.002 y' (mrad): 0.002

SCAN TYPE: PHOTON ENERGY VS VAR_1 VS VAR_2

FILE INFO: FILE INFO:

SCAN PARAMETERS
waiting time (ms): 1000
Number of scans: 1
Current scan number: 1
DARK OFF 
PREDARK OFF 

SCAN PARAMETERS
Regions configuration: 
number of regions: 7
Mirror grating scan: on
Timed acquisition: off
Region 1:
Initial energy (eV): 3.000000
Final energy (eV): 4.500000
Delta energy (eV): 0.100000
Deviation angle choice: Degrees: 
Deviation angle (°): NaN
B270 window
GNIM channel
range keithley B 200 pA
range keithley C 200 pA
range keithley A 200 pA
Var_1: PsiC 0.000000
Var_2: PhiM0.000000
Bias CEM (V): 0.000000
Bias Keithley B (V): -30.000000
Name region: 
Region 2:
Initial energy (eV): 4.000000
Final energy (eV): 8.000000
Delta energy (eV): 0.100000
Deviation angle choice: Degrees: 
Deviation angle (°): NaN
SiO2 window
GNIM channel
range keithley B 200 pA
range keithley C 200 pA
range keithley A 200 pA
Var_1: PsiC 0.000000
Var_2: PhiM0.000000
Bias CEM (V): 0.000000
Bias Keithley B (V): -30.000000
Name region: 
Region 3:
Initial energy (eV): 7.000000
Final energy (eV): 12.000000
Delta energy (eV): 0.100000
Deviation angle choice: Degrees: 
Deviation angle (°): NaN
filter LiF window
GNIM channel
range keithley B 200 pA
range keithley C 200 pA
range keithley A 200 pA
Var_1: PsiC 0.000000
Var_2: PhiM0.000000
Bias CEM (V): 0.000000
Bias Keithley B (V): -30.000000
Name region: 
Region 4:
Initial energy (eV): 11.000000
Final energy (eV): 18.000000
Delta energy (eV): 0.100000
Deviation angle choice: Degrees: 
Deviation angle (°): NaN
In filter
GNIM channel
range keithley B 200 pA
range keithley C 200 pA
range keithley A 200 pA
Var_1: PsiC 0.000000
Var_2: PhiM0.000000
Bias CEM (V): 0.000000
Bias Keithley B (V): -30.000000
Name region: 
Region 5:
Initial energy (eV): 15.000000
Final energy (eV): 25.000000
Delta energy (eV): 0.100000
Deviation angle choice: Degrees: 
Deviation angle (°): NaN
Sn filter
GNIM channel
range keithley B 200 pA
range keithley C 200 pA
range keithley A 200 pA
Var_1: PsiC 0.000000
Var_2: PhiM0.000000
Bias CEM (V): 0.000000
Bias Keithley B (V): -30.000000
Name region: 
Region 6:
Initial energy (eV): 23.000000
Final energy (eV): 45.000000
Delta energy (eV): 0.100000
Deviation angle choice: Degrees: 
Deviation angle (°): NaN
Full Beam
GNIM channel
range keithley B 20 nA
range keithley C 200 pA
range keithley A 20 nA
Var_1: PsiC 0.000000
Var_2: PhiM0.000000
Bias CEM (V): 0.000000
Bias Keithley B (V): -30.000000
Name region: 
Region 7:
Initial energy (eV): 23.000000
Final energy (eV): 45.000000
Delta energy (eV): 0.100000
Deviation angle choice: Degrees: 
Deviation angle (°): NaN
Al filter
GNIM channel
range keithley B 20 nA
range keithley C 200 pA
range keithley A 20 nA
Var_1: PsiC 0.000000
Var_2: PhiM0.000000
Bias CEM (V): 0.000000
Bias Keithley B (V): -30.000000
Name region: 

BEAR MONOCHROMATOR CONFIGURATION: 
Current Grating Position:     200056.80
Current Mirror Position: 10000.0
Current Grating: GNIM
P2 phiz position:  -0.0195
Mono axis position: 73.5000
Current Photon Energy (eV): 45.000
Current Deviation Angle: 29.905
Vertical Exit Slits (um): 100.000
Exit slit y axis position: 1.3625
Horizontal Exit Slits (um):  889.156
Exit slit z axis position: 1.9229
Mitutoyo position (mm): 

Dose on sample (mJ/cm^2): NaN

ENERGY CALIBRATION:
offset grating G1200: yes
Delta 0 order G1200:  -1100.0
offset grating G1800: not
Delta 0 order G1800:  0.0
offset grating GNIM: not
Delta 0 order GNIM:  0.0
ZERO ORDER POSITIONS:
Grating G1200: Mirror position:  4938.0
Grating position: -105355.0
Grating G1800: 
Mirror position:  4938.0
Grating position: -106345.0
Grating GNIM: 
Mirror position:  10000.0
Grating position: 227300.0

Initial filter: Al filter

EXPERIMENTAL CHAMBER CONFIGURATION: 
PsiC (deg):   -0.000186
Phi Analyzer (degrees): 89.993255
Theta Manipulator (degrees): -44.000040
Theta Analyzer (degrees): -135.001468
PhiM (degrees): -0.003077
XM (mm): 0.000913
YM (mm): 7.907125
ZM (mm): (Warning: for kinetic energy scans, 
this parameter is given in the scan settings) 
-10.201325
TiltM (°): 0.000138

ELECTRON ANALYZER CONFIGURATION: 
Current Kinetik energy (eV): 35.0
Mode: DE = COST
Pass Energy (eV):  100.000
CEM: ON
Bias Front-Back CEM (V): 3499.698
Bias Back-Collector CEM (V): 100.874
Bias Retard-Front CEM: 100.104COIL VALUES
Ix (amps):2.820
Iy (amps): 6.789
Iz (amps): 37.403

POLARIZATION SELECTOR CONFIGURATION:
Psi1 (rad): -0.001665535
Psi2 (rad): 0.001417093
Z min position (mm): 46.599650
DZ position (mm): 18.599100
Zmin 0 (mm): 65.700000
DZ0 (mm): 54.000000

BEAM SELECTOR CONFIGURATION:
Zmin position (mm): NaN
DZ position (mm): NaN
Y+ position (mm): NaN
Y- position (mm): NaN

CHANNEL ELECTRON MULTIPLIER CONFIGURATION:
CEM configured: OFF
Bias CEM: 0.000000

FLUORESCENCE DETECTOR CONFIGURATION:
Not configured

LUMINESCENCE MONOCHROMATOR CONFIGURATION:
Optical fiber position (mm): 0.000000
Optical fiber Switch inside: ON
Optical fiber Switch outside: ON
Monochromator wavelength (A): 0.000000
Limit Switches: ON

I0 MONITOR PARAMETERS:
I0 detector position(mm): NaN
Lower switch: OFF
Upper switch: OFF
Valve status:unread

PRESSURE PARAMETERS:
Monitor chamber pressure (mbar): 9.057e-10
Experimental chamber pressure -ION GAUGE-(mbar): 0.000000E+0

XMCD PARAMETERS:
Xmcd OFF
Xmcd Direction -
Xmcd current (A): 0.000000

Gated scan off

Instrument 1: AMMETER KEITHLEY 6517A B
Measure type: Current
range type: set range value
range value (ampere):  200 pA
Integration time:  set NPLC value
NPLC value: 10.000
Digital filter count: 2
SAMPLE BIAS (V): -30.000
Vsource: ON
Output Voltage value: 30.000
Vsource range: 1000 V

Range Keithley B changed to 20 nA

Range Keithley B changed to 200 pA

Range Keithley B changed to 20 nA

Range Keithley B changed to 200 pA

Keithley B Bias (V) changed to: 0.000000

Range Keithley B changed to 20 nA

Keithley B Bias (V) changed to: -30.000000

Range Keithley B changed to 200 pA

Range Keithley B changed to 20 nA

Range Keithley B changed to 200 pA

Range Keithley B changed to 20 nA

Range Keithley B changed to 200 pA

Range Keithley B changed to 20 nA

Range Keithley B changed to 200 pA

Keithley B Bias (V) changed to: 0.000000

Keithley B Bias (V) changed to: -30.000000

Range Keithley B changed to 20 nA

Range Keithley B changed to 200 pA

Range Keithley B changed to 20 nA

Range Keithley B changed to 200 pA

Range Keithley B changed to 20 nA

Range Keithley B changed to 200 pA

Range Keithley B changed to 20 nA

Range Keithley B changed to 200 pA

Range Keithley B changed to 20 nA

Instrument 2: AMMETER KEITHLEY 6517A A
Measure type: Current
range type: set range value
range value (ampere):  200 pA
Integration time:  set NPLC value
NPLC value: 10.000
Digital filter count: 2
Vsource: OFF
Output Voltage value: -0.000
Vsource range: 100 V
Trigger source: bus

Range Keithley A changed to 20 nA

Range Keithley A changed to 200 nA

Range Keithley A changed to 200 pA

Range Keithley A changed to 20 nA

Range Keithley A changed to 200 pA

Range Keithley A changed to 20 nA

Range Keithley A changed to 200 nA

Range Keithley A changed to 200 pA

Range Keithley A changed to 20 nA

Range Keithley A changed to 200 pA

Range Keithley A changed to 20 nA

Range Keithley A changed to 200 nA

Range Keithley A changed to 200 pA

Range Keithley A changed to 20 nA

Range Keithley A changed to 200 pA

Range Keithley A changed to 20 nA

Range Keithley A changed to 200 pA

Range Keithley A changed to 20 nA

Range Keithley A changed to 200 pA

Range Keithley A changed to 20 nA

Range Keithley A changed to 200 pA

Range Keithley A changed to 20 nA

Range Keithley A changed to 200 pA

Range Keithley A changed to 20 nA

Range Keithley A changed to 200 pA

Range Keithley A changed to 20 nA

Instrument 3: COUNTER ORTEC 996Integration time (sec): 1.000


Range Keithley C changed to 200 nA


Range Keithley C changed to 2 uA


Range Keithley C changed to 200 nA


Range Keithley C changed to 2 uA


Range Keithley C changed to 200 pA


________________________________________________________________________________

RelativeTime (msec)	Photon Energy	Var_1	Var_2	INSTR_1_Sample with Bias _(ampere ) 	INSTR_2_Monitor IM_(ampere)  	INSTR_3_Ortec 996 counts_(counts)	I_BPM_sum (Amps)	
________________________________________________________________________________

3.23285800E+6	2.30002606E+1	0.00000000E+0	0.00000000E+0	1.48000000E-12	2.51000000E-11	4.80000000E+1	8.91952502E-5
3.23931600E+6	2.30996775E+1	0.00000000E+0	0.00000000E+0	1.39000000E-12	2.59600000E-11	4.10000000E+1	8.91144442E-5
3.24501400E+6	2.32000015E+1	0.00000000E+0	0.00000000E+0	1.29000000E-12	2.68900000E-11	3.60000000E+1	8.92220007E-5
3.25071800E+6	2.33000030E+1	0.00000000E+0	0.00000000E+0	1.37000000E-12	2.76400000E-11	4.20000000E+1	8.94273984E-5
3.25643700E+6	2.33999754E+1	0.00000000E+0	0.00000000E+0	1.35000000E-12	2.83700000E-11	3.80000000E+1	8.91462224E-5
3.26216200E+6	2.35000422E+1	0.00000000E+0	0.00000000E+0	1.49000000E-12	2.90800000E-11	4.50000000E+1	8.91093569E-5
3.26790000E+6	2.35999673E+1	0.00000000E+0	0.00000000E+0	1.38000000E-12	2.95100000E-11	5.50000000E+1	8.91245889E-5
3.27360200E+6	2.37000573E+1	0.00000000E+0	0.00000000E+0	1.47000000E-12	2.98700000E-11	5.80000000E+1	8.93876480E-5
3.27930700E+6	2.37999817E+1	0.00000000E+0	0.00000000E+0	1.45000000E-12	3.00900000E-11	5.60000000E+1	8.90666353E-5
3.28500600E+6	2.39000520E+1	0.00000000E+0	0.00000000E+0	1.40000000E-12	3.01600000E-11	5.80000000E+1	8.92033028E-5
3.29067000E+6	2.39999319E+1	0.00000000E+0	0.00000000E+0	1.37000000E-12	3.00700000E-11	4.30000000E+1	8.94125717E-5
3.29624300E+6	2.40998908E+1	0.00000000E+0	0.00000000E+0	1.36000000E-12	2.98200000E-11	5.80000000E+1	8.92958718E-5
3.30191600E+6	2.42002073E+1	0.00000000E+0	0.00000000E+0	1.25000000E-12	2.95100000E-11	4.50000000E+1	8.90732812E-5
3.30746700E+6	2.42998183E+1	0.00000000E+0	0.00000000E+0	1.26000000E-12	2.92300000E-11	3.70000000E+1	8.97686797E-5
3.31301300E+6	2.44001067E+1	0.00000000E+0	0.00000000E+0	1.30000000E-12	2.88700000E-11	4.30000000E+1	9.00285798E-5
3.31868800E+6	2.45000983E+1	0.00000000E+0	0.00000000E+0	1.33000000E-12	2.84200000E-11	5.10000000E+1	8.91880559E-5
3.32426100E+6	2.45999732E+1	0.00000000E+0	0.00000000E+0	1.26000000E-12	2.80400000E-11	5.40000000E+1	8.93171000E-5
3.32992200E+6	2.46999179E+1	0.00000000E+0	0.00000000E+0	1.17000000E-12	2.77000000E-11	4.60000000E+1	8.96367597E-5
3.33548500E+6	2.47999744E+1	0.00000000E+0	0.00000000E+0	1.19000000E-12	2.74400000E-11	4.90000000E+1	8.98323703E-5
3.34106400E+6	2.49000849E+1	0.00000000E+0	0.00000000E+0	1.18000000E-12	2.72100000E-11	3.40000000E+1	8.94431608E-5
3.34667600E+6	2.49999855E+1	0.00000000E+0	0.00000000E+0	1.18000000E-12	2.71200000E-11	5.50000000E+1	8.92048555E-5
3.35223800E+6	2.51000217E+1	0.00000000E+0	0.00000000E+0	1.15000000E-12	2.70600000E-11	4.90000000E+1	8.96107006E-5
3.35779000E+6	2.52000313E+1	0.00000000E+0	0.00000000E+0	1.17000000E-12	2.71000000E-11	4.70000000E+1	8.95881164E-5
3.36334000E+6	2.53000043E+1	0.00000000E+0	0.00000000E+0	1.21000000E-12	2.71900000E-11	3.90000000E+1	8.95397770E-5
3.36896600E+6	2.53999302E+1	0.00000000E+0	0.00000000E+0	1.19000000E-12	2.73200000E-11	4.10000000E+1	8.94936251E-5
3.37451000E+6	2.54998515E+1	0.00000000E+0	0.00000000E+0	1.18000000E-12	2.75300000E-11	5.40000000E+1	8.93694179E-5
3.38007900E+6	2.56001336E+1	0.00000000E+0	0.00000000E+0	1.23000000E-12	2.77700000E-11	5.00000000E+1	8.96796542E-5
3.38563100E+6	2.57000742E+1	0.00000000E+0	0.00000000E+0	1.30000000E-12	2.80600000E-11	4.40000000E+1	8.95978766E-5
3.39123100E+6	2.58000367E+1	0.00000000E+0	0.00000000E+0	1.15000000E-12	2.82300000E-11	4.70000000E+1	8.95716625E-5
3.39677500E+6	2.58999028E+1	0.00000000E+0	0.00000000E+0	1.27000000E-12	2.84800000E-11	3.00000000E+1	8.95372378E-5
3.40233500E+6	2.59999373E+1	0.00000000E+0	0.00000000E+0	1.24000000E-12	2.86400000E-11	6.10000000E+1	8.95180362E-5
3.40791600E+6	2.61000240E+1	0.00000000E+0	0.00000000E+0	1.27000000E-12	2.87400000E-11	4.10000000E+1	8.91839223E-5
3.41346900E+6	2.61999868E+1	0.00000000E+0	0.00000000E+0	1.27000000E-12	2.87800000E-11	5.40000000E+1	8.94876229E-5
3.41901000E+6	2.63000400E+1	0.00000000E+0	0.00000000E+0	1.25000000E-12	2.87800000E-11	5.30000000E+1	8.96065729E-5
3.42456100E+6	2.63998920E+1	0.00000000E+0	0.00000000E+0	1.23000000E-12	2.87100000E-11	4.80000000E+1	8.91572403E-5
3.43010000E+6	2.64999888E+1	0.00000000E+0	0.00000000E+0	1.17000000E-12	2.86200000E-11	4.80000000E+1	8.93456774E-5
3.43565700E+6	2.66000958E+1	0.00000000E+0	0.00000000E+0	1.16000000E-12	2.84700000E-11	6.10000000E+1	8.93405246E-5
3.44119000E+6	2.66999717E+1	0.00000000E+0	0.00000000E+0	1.21000000E-12	2.82500000E-11	7.60000000E+1	8.94954192E-5
3.44670500E+6	2.68000723E+1	0.00000000E+0	0.00000000E+0	1.14000000E-12	2.80900000E-11	4.80000000E+1	8.93356460E-5
3.45224700E+6	2.68999210E+1	0.00000000E+0	0.00000000E+0	1.17000000E-12	2.78100000E-11	5.90000000E+1	8.96106261E-5
3.45780000E+6	2.69999804E+1	0.00000000E+0	0.00000000E+0	1.09000000E-12	2.75400000E-11	4.00000000E+1	8.94543546E-5
3.46337600E+6	2.70999468E+1	0.00000000E+0	0.00000000E+0	1.10000000E-12	2.73000000E-11	4.70000000E+1	8.96378415E-5
3.46893200E+6	2.71999307E+1	0.00000000E+0	0.00000000E+0	1.14000000E-12	2.71100000E-11	4.10000000E+1	8.94720512E-5
3.47451800E+6	2.72999853E+1	0.00000000E+0	0.00000000E+0	1.03000000E-12	2.69500000E-11	4.70000000E+1	8.94910532E-5
3.48006600E+6	2.74000425E+1	0.00000000E+0	0.00000000E+0	1.14000000E-12	2.67900000E-11	4.50000000E+1	8.89755832E-5
3.48561400E+6	2.74999706E+1	0.00000000E+0	0.00000000E+0	1.03000000E-12	2.66900000E-11	4.30000000E+1	8.93697011E-5
3.49119100E+6	2.75999456E+1	0.00000000E+0	0.00000000E+0	1.14000000E-12	2.65900000E-11	3.10000000E+1	8.90633779E-5
3.49680600E+6	2.76999605E+1	0.00000000E+0	0.00000000E+0	1.09000000E-12	2.65700000E-11	4.50000000E+1	8.91709583E-5
3.50235800E+6	2.77999450E+1	0.00000000E+0	0.00000000E+0	1.09000000E-12	2.66000000E-11	3.70000000E+1	8.92312484E-5
3.50794000E+6	2.79002087E+1	0.00000000E+0	0.00000000E+0	1.06000000E-12	2.66500000E-11	4.50000000E+1	8.90769558E-5
3.51429100E+6	2.79999170E+1	0.00000000E+0	0.00000000E+0	1.10000000E-12	2.67700000E-11	3.30000000E+1	8.94268709E-5
3.51987200E+6	2.80999534E+1	0.00000000E+0	0.00000000E+0	1.05000000E-12	2.69600000E-11	5.50000000E+1	8.92425793E-5
3.52541500E+6	2.82001222E+1	0.00000000E+0	0.00000000E+0	1.15000000E-12	2.72500000E-11	4.00000000E+1	8.94978421E-5
3.53098000E+6	2.83000261E+1	0.00000000E+0	0.00000000E+0	1.09000000E-12	2.75500000E-11	4.70000000E+1	8.94090550E-5
3.53654100E+6	2.84000473E+1	0.00000000E+0	0.00000000E+0	1.13000000E-12	2.79200000E-11	4.60000000E+1	8.93476772E-5
3.54200500E+6	2.84997823E+1	0.00000000E+0	0.00000000E+0	1.17000000E-12	2.83100000E-11	2.00000000E+1	8.91379165E-5
3.54756900E+6	2.86001535E+1	0.00000000E+0	0.00000000E+0	1.11000000E-12	2.88500000E-11	4.90000000E+1	8.89870332E-5
3.55314300E+6	2.86998880E+1	0.00000000E+0	0.00000000E+0	1.18000000E-12	2.93300000E-11	5.10000000E+1	8.92557251E-5
3.55869100E+6	2.88000494E+1	0.00000000E+0	0.00000000E+0	1.18000000E-12	3.00500000E-11	4.70000000E+1	8.95282167E-5
3.56426500E+6	2.89000252E+1	0.00000000E+0	0.00000000E+0	1.11000000E-12	3.07300000E-11	5.70000000E+1	8.94652235E-5
3.56969500E+6	2.89997354E+1	0.00000000E+0	0.00000000E+0	1.05000000E-12	3.13900000E-11	5.20000000E+1	8.93896865E-5
3.57517400E+6	2.90998592E+1	0.00000000E+0	0.00000000E+0	1.22000000E-12	3.21000000E-11	6.00000000E+1	8.95918327E-5
3.58074800E+6	2.92004678E+1	0.00000000E+0	0.00000000E+0	1.40000000E-12	3.29100000E-11	4.20000000E+1	8.94580948E-5
3.58631900E+6	2.93000206E+1	0.00000000E+0	0.00000000E+0	1.25000000E-12	3.37900000E-11	6.60000000E+1	8.93484133E-5
3.59187400E+6	2.93999721E+1	0.00000000E+0	0.00000000E+0	1.29000000E-12	3.46400000E-11	5.20000000E+1	8.95829069E-5
3.59741400E+6	2.94999678E+1	0.00000000E+0	0.00000000E+0	1.41000000E-12	3.55900000E-11	5.70000000E+1	8.96988678E-5
3.60291800E+6	2.96000733E+1	0.00000000E+0	0.00000000E+0	1.39000000E-12	3.65100000E-11	5.20000000E+1	8.92503517E-5
3.60840000E+6	2.96997072E+1	0.00000000E+0	0.00000000E+0	1.30000000E-12	3.74900000E-11	6.20000000E+1	8.93045353E-5
3.61381200E+6	2.98001593E+1	0.00000000E+0	0.00000000E+0	1.31000000E-12	3.84600000E-11	4.60000000E+1	8.95082551E-5
3.61924100E+6	2.98999052E+1	0.00000000E+0	0.00000000E+0	1.42000000E-12	3.94100000E-11	4.60000000E+1	8.95904499E-5
3.62465900E+6	3.00002474E+1	0.00000000E+0	0.00000000E+0	1.42000000E-12	4.03500000E-11	5.60000000E+1	8.93088239E-5
3.63004600E+6	3.00997848E+1	0.00000000E+0	0.00000000E+0	1.43000000E-12	4.13100000E-11	5.60000000E+1	8.94552635E-5
3.63546200E+6	3.02001339E+1	0.00000000E+0	0.00000000E+0	1.51000000E-12	4.22400000E-11	5.10000000E+1	8.93545376E-5
3.64088700E+6	3.02998790E+1	0.00000000E+0	0.00000000E+0	1.57000000E-12	4.30900000E-11	6.70000000E+1	8.91653137E-5
3.64630000E+6	3.04001341E+1	0.00000000E+0	0.00000000E+0	1.54000000E-12	4.39200000E-11	4.50000000E+1	8.94489574E-5
3.65187200E+6	3.05002947E+1	0.00000000E+0	0.00000000E+0	1.59000000E-12	4.46900000E-11	6.50000000E+1	8.94146787E-5
3.65736200E+6	3.05998167E+1	0.00000000E+0	0.00000000E+0	1.64000000E-12	4.53900000E-11	6.90000000E+1	8.92772602E-5
3.66278800E+6	3.06999904E+1	0.00000000E+0	0.00000000E+0	1.62000000E-12	4.59400000E-11	6.30000000E+1	8.95009684E-5
3.66828700E+6	3.08000469E+1	0.00000000E+0	0.00000000E+0	1.59000000E-12	4.64100000E-11	4.80000000E+1	8.90701430E-5
3.67373900E+6	3.08997434E+1	0.00000000E+0	0.00000000E+0	1.59000000E-12	4.67700000E-11	6.50000000E+1	8.92707573E-5
3.67920700E+6	3.10001660E+1	0.00000000E+0	0.00000000E+0	1.69000000E-12	4.70000000E-11	5.40000000E+1	8.91183751E-5
3.68469600E+6	3.10998999E+1	0.00000000E+0	0.00000000E+0	1.58000000E-12	4.71000000E-11	5.20000000E+1	8.94811081E-5
3.69014600E+6	3.11999594E+1	0.00000000E+0	0.00000000E+0	1.52000000E-12	4.70400000E-11	6.30000000E+1	8.92797189E-5
3.69564200E+6	3.12998643E+1	0.00000000E+0	0.00000000E+0	1.58000000E-12	4.68300000E-11	6.00000000E+1	8.94374418E-5
3.70110300E+6	3.14004110E+1	0.00000000E+0	0.00000000E+0	1.64000000E-12	4.65100000E-11	6.60000000E+1	8.93763202E-5
3.70654000E+6	3.14999842E+1	0.00000000E+0	0.00000000E+0	1.55000000E-12	4.60300000E-11	8.40000000E+1	8.91707944E-5
3.71199000E+6	3.15998645E+1	0.00000000E+0	0.00000000E+0	1.53000000E-12	4.54400000E-11	7.90000000E+1	8.93065321E-5
3.71742800E+6	3.17000517E+1	0.00000000E+0	0.00000000E+0	1.56000000E-12	4.46700000E-11	7.40000000E+1	8.93587755E-5
3.72287900E+6	3.18001326E+1	0.00000000E+0	0.00000000E+0	1.43000000E-12	4.38100000E-11	7.30000000E+1	8.90765117E-5
3.72833900E+6	3.19000159E+1	0.00000000E+0	0.00000000E+0	1.40000000E-12	4.29000000E-11	6.80000000E+1	8.91654926E-5
3.73374500E+6	3.20001102E+1	0.00000000E+0	0.00000000E+0	1.42000000E-12	4.19100000E-11	6.90000000E+1	8.91217189E-5
3.73917100E+6	3.21000769E+1	0.00000000E+0	0.00000000E+0	1.28000000E-12	4.08900000E-11	6.00000000E+1	8.93738943E-5
3.74456600E+6	3.21996534E+1	0.00000000E+0	0.00000000E+0	1.35000000E-12	3.97900000E-11	6.70000000E+1	8.92573165E-5
3.75000900E+6	3.23001054E+1	0.00000000E+0	0.00000000E+0	1.28000000E-12	3.86800000E-11	6.10000000E+1	8.91931461E-5
3.75542700E+6	3.24000709E+1	0.00000000E+0	0.00000000E+0	1.29000000E-12	3.75400000E-11	5.20000000E+1	8.90937315E-5
3.76086800E+6	3.24999667E+1	0.00000000E+0	0.00000000E+0	1.13000000E-12	3.65000000E-11	4.60000000E+1	8.93485325E-5
3.76632300E+6	3.26000461E+1	0.00000000E+0	0.00000000E+0	1.13000000E-12	3.54300000E-11	6.30000000E+1	8.89831113E-5
3.77173200E+6	3.26997827E+1	0.00000000E+0	0.00000000E+0	1.14000000E-12	3.44600000E-11	6.90000000E+1	8.95886409E-5
3.77712300E+6	3.28001314E+1	0.00000000E+0	0.00000000E+0	1.14000000E-12	3.34400000E-11	5.70000000E+1	8.94957053E-5
3.78254600E+6	3.29002135E+1	0.00000000E+0	0.00000000E+0	1.06000000E-12	3.24300000E-11	7.60000000E+1	8.95727026E-5
3.78878700E+6	3.29998403E+1	0.00000000E+0	0.00000000E+0	1.09000000E-12	3.14700000E-11	5.70000000E+1	8.93779980E-5
3.79421900E+6	3.31001618E+1	0.00000000E+0	0.00000000E+0	1.03000000E-12	3.05900000E-11	7.40000000E+1	8.91552584E-5
3.79971700E+6	3.32000143E+1	0.00000000E+0	0.00000000E+0	1.06000000E-12	2.97100000E-11	6.20000000E+1	8.93837469E-5
3.80517500E+6	3.32998369E+1	0.00000000E+0	0.00000000E+0	9.80000000E-13	2.88600000E-11	7.10000000E+1	8.95133304E-5
3.81065500E+6	3.33998969E+1	0.00000000E+0	0.00000000E+0	9.00000000E-13	2.80300000E-11	5.20000000E+1	8.93234002E-5
3.81612200E+6	3.34999181E+1	0.00000000E+0	0.00000000E+0	8.40000000E-13	2.73000000E-11	6.10000000E+1	8.93322008E-5
3.82158300E+6	3.35999866E+1	0.00000000E+0	0.00000000E+0	8.30000000E-13	2.65400000E-11	6.80000000E+1	8.94640642E-5
3.82700900E+6	3.37001908E+1	0.00000000E+0	0.00000000E+0	9.30000000E-13	2.57600000E-11	5.30000000E+1	8.94280063E-5
3.83244500E+6	3.37997808E+1	0.00000000E+0	0.00000000E+0	8.80000000E-13	2.51600000E-11	7.00000000E+1	8.91247260E-5
3.83789900E+6	3.38999612E+1	0.00000000E+0	0.00000000E+0	7.40000000E-13	2.44600000E-11	5.70000000E+1	8.93707561E-5
3.84333000E+6	3.39999816E+1	0.00000000E+0	0.00000000E+0	8.40000000E-13	2.38200000E-11	7.10000000E+1	8.95084607E-5
3.84876000E+6	3.41000238E+1	0.00000000E+0	0.00000000E+0	7.80000000E-13	2.31700000E-11	5.70000000E+1	8.91086238E-5
3.85421700E+6	3.42000830E+1	0.00000000E+0	0.00000000E+0	6.70000000E-13	2.24900000E-11	5.60000000E+1	8.94259142E-5
3.85962400E+6	3.42998659E+1	0.00000000E+0	0.00000000E+0	7.00000000E-13	2.19400000E-11	5.50000000E+1	8.95058917E-5
3.86505500E+6	3.44001361E+1	0.00000000E+0	0.00000000E+0	6.10000000E-13	2.13500000E-11	4.50000000E+1	8.91172217E-5
3.87051800E+6	3.45001189E+1	0.00000000E+0	0.00000000E+0	7.20000000E-13	2.07400000E-11	4.20000000E+1	8.95510840E-5
3.87598100E+6	3.45999998E+1	0.00000000E+0	0.00000000E+0	5.60000000E-13	2.01200000E-11	4.30000000E+1	8.93930393E-5
3.88143000E+6	3.46998704E+1	0.00000000E+0	0.00000000E+0	5.60000000E-13	1.96100000E-11	4.70000000E+1	8.97158670E-5
3.88689000E+6	3.48001213E+1	0.00000000E+0	0.00000000E+0	5.90000000E-13	1.91400000E-11	4.20000000E+1	8.93483596E-5
3.89232900E+6	3.48998583E+1	0.00000000E+0	0.00000000E+0	5.90000000E-13	1.86300000E-11	3.50000000E+1	8.92681407E-5
3.89778200E+6	3.49999685E+1	0.00000000E+0	0.00000000E+0	5.10000000E-13	1.81600000E-11	4.50000000E+1	8.91629087E-5
3.90317200E+6	3.50998493E+1	0.00000000E+0	0.00000000E+0	4.90000000E-13	1.77000000E-11	4.90000000E+1	8.91943621E-5
3.90861800E+6	3.51998967E+1	0.00000000E+0	0.00000000E+0	4.80000000E-13	1.72400000E-11	4.10000000E+1	8.94509899E-5
3.91407200E+6	3.53002107E+1	0.00000000E+0	0.00000000E+0	5.60000000E-13	1.68400000E-11	2.30000000E+1	8.90563862E-5
3.91951300E+6	3.53998693E+1	0.00000000E+0	0.00000000E+0	5.10000000E-13	1.64400000E-11	3.80000000E+1	8.92929541E-5
3.92496400E+6	3.54999892E+1	0.00000000E+0	0.00000000E+0	4.40000000E-13	1.60700000E-11	4.00000000E+1	8.89955090E-5
3.93049500E+6	3.55999521E+1	0.00000000E+0	0.00000000E+0	4.20000000E-13	1.56600000E-11	3.50000000E+1	8.92125743E-5
3.93592400E+6	3.56999589E+1	0.00000000E+0	0.00000000E+0	3.90000000E-13	1.53400000E-11	3.60000000E+1	8.93848645E-5
3.94140000E+6	3.58000055E+1	0.00000000E+0	0.00000000E+0	3.80000000E-13	1.50700000E-11	2.90000000E+1	8.92911541E-5
3.94689700E+6	3.58997719E+1	0.00000000E+0	0.00000000E+0	4.10000000E-13	1.46900000E-11	2.50000000E+1	8.96251159E-5
3.95238600E+6	3.60000959E+1	0.00000000E+0	0.00000000E+0	3.50000000E-13	1.44300000E-11	2.80000000E+1	8.91188162E-5
3.95784200E+6	3.60999172E+1	0.00000000E+0	0.00000000E+0	3.70000000E-13	1.41300000E-11	3.50000000E+1	8.88487654E-5
3.96330100E+6	3.62000796E+1	0.00000000E+0	0.00000000E+0	4.00000000E-13	1.38500000E-11	1.70000000E+1	8.91823368E-5
3.96879300E+6	3.63002609E+1	0.00000000E+0	0.00000000E+0	3.90000000E-13	1.35700000E-11	2.90000000E+1	8.92238574E-5
3.97423700E+6	3.63999156E+1	0.00000000E+0	0.00000000E+0	4.50000000E-13	1.33100000E-11	2.60000000E+1	8.92688798E-5
3.97968400E+6	3.65000101E+1	0.00000000E+0	0.00000000E+0	2.50000000E-13	1.30600000E-11	2.40000000E+1	8.91720312E-5
3.98515000E+6	3.65999999E+1	0.00000000E+0	0.00000000E+0	3.80000000E-13	1.28300000E-11	2.70000000E+1	8.90451418E-5
3.99060600E+6	3.66999886E+1	0.00000000E+0	0.00000000E+0	3.40000000E-13	1.26700000E-11	1.70000000E+1	8.93620687E-5
3.99604900E+6	3.67998613E+1	0.00000000E+0	0.00000000E+0	3.30000000E-13	1.24400000E-11	2.50000000E+1	8.97819626E-5
4.00148000E+6	3.69000565E+1	0.00000000E+0	0.00000000E+0	2.70000000E-13	1.22100000E-11	2.70000000E+1	8.93377411E-5
4.00692100E+6	3.69999038E+1	0.00000000E+0	0.00000000E+0	3.40000000E-13	1.20300000E-11	2.30000000E+1	8.97180366E-5
4.01241200E+6	3.70999556E+1	0.00000000E+0	0.00000000E+0	3.50000000E-13	1.17600000E-11	2.60000000E+1	8.96574008E-5
4.01784300E+6	3.72000976E+1	0.00000000E+0	0.00000000E+0	2.70000000E-13	1.15900000E-11	2.10000000E+1	8.94842672E-5
4.02327800E+6	3.72998722E+1	0.00000000E+0	0.00000000E+0	2.60000000E-13	1.13800000E-11	2.20000000E+1	8.95545560E-5
4.02872600E+6	3.74001835E+1	0.00000000E+0	0.00000000E+0	3.20000000E-13	1.11800000E-11	3.00000000E+1	8.93681812E-5
4.03416400E+6	3.75000015E+1	0.00000000E+0	0.00000000E+0	2.40000000E-13	1.10000000E-11	2.50000000E+1	8.94686299E-5
4.03960100E+6	3.75997762E+1	0.00000000E+0	0.00000000E+0	2.50000000E-13	1.07300000E-11	2.20000000E+1	8.95131486E-5
4.04507500E+6	3.77000832E+1	0.00000000E+0	0.00000000E+0	2.90000000E-13	1.05400000E-11	2.50000000E+1	8.91178804E-5
4.05054200E+6	3.78001096E+1	0.00000000E+0	0.00000000E+0	2.90000000E-13	1.03800000E-11	2.70000000E+1	8.93828469E-5
4.05591100E+6	3.78993770E+1	0.00000000E+0	0.00000000E+0	2.70000000E-13	1.01900000E-11	2.10000000E+1	8.92058777E-5
4.06216500E+6	3.80005831E+1	0.00000000E+0	0.00000000E+0	1.70000000E-13	1.00200000E-11	1.90000000E+1	8.96824348E-5
4.06749200E+6	3.80992471E+1	0.00000000E+0	0.00000000E+0	2.30000000E-13	9.81000000E-12	2.20000000E+1	8.93204766E-5
4.07286800E+6	3.82002133E+1	0.00000000E+0	0.00000000E+0	2.10000000E-13	9.64000000E-12	1.80000000E+1	8.92924207E-5
4.07816500E+6	3.83000378E+1	0.00000000E+0	0.00000000E+0	1.90000000E-13	9.48000000E-12	1.90000000E+1	8.95747739E-5
4.08346200E+6	3.84000240E+1	0.00000000E+0	0.00000000E+0	2.10000000E-13	9.30000000E-12	1.80000000E+1	8.96602529E-5
4.08882300E+6	3.85001702E+1	0.00000000E+0	0.00000000E+0	2.30000000E-13	9.18000000E-12	2.40000000E+1	8.93796044E-5
4.09417100E+6	3.85998662E+1	0.00000000E+0	0.00000000E+0	1.70000000E-13	8.98000000E-12	3.00000000E+1	8.92891692E-5
4.09947000E+6	3.87000798E+1	0.00000000E+0	0.00000000E+0	8.00000000E-14	8.82000000E-12	1.90000000E+1	8.90395956E-5
4.10478200E+6	3.88000770E+1	0.00000000E+0	0.00000000E+0	2.00000000E-13	8.72000000E-12	2.40000000E+1	8.95581054E-5
4.11019400E+6	3.89005923E+1	0.00000000E+0	0.00000000E+0	2.30000000E-13	8.53000000E-12	1.80000000E+1	8.92252015E-5
4.11549100E+6	3.89996412E+1	0.00000000E+0	0.00000000E+0	2.60000000E-13	8.37000000E-12	1.40000000E+1	8.93445419E-5
4.12080500E+6	3.90998203E+1	0.00000000E+0	0.00000000E+0	1.60000000E-13	8.30000000E-12	2.30000000E+1	8.96184164E-5
4.12612300E+6	3.92001388E+1	0.00000000E+0	0.00000000E+0	2.10000000E-13	8.09000000E-12	1.90000000E+1	8.93025743E-5
4.13154300E+6	3.93005947E+1	0.00000000E+0	0.00000000E+0	7.00000000E-14	7.92000000E-12	9.00000000E+0	8.93935191E-5
4.13684200E+6	3.93995372E+1	0.00000000E+0	0.00000000E+0	2.10000000E-13	7.78000000E-12	1.50000000E+1	8.91383605E-5
4.14222900E+6	3.94999991E+1	0.00000000E+0	0.00000000E+0	1.60000000E-13	7.67000000E-12	1.60000000E+1	8.91602533E-5
4.14754100E+6	3.95998213E+1	0.00000000E+0	0.00000000E+0	1.50000000E-13	7.50000000E-12	1.60000000E+1	8.91924398E-5
4.15284000E+6	3.97002781E+1	0.00000000E+0	0.00000000E+0	1.00000000E-13	7.41000000E-12	2.00000000E+1	8.91693847E-5
4.15815600E+6	3.98003398E+1	0.00000000E+0	0.00000000E+0	1.20000000E-13	7.31000000E-12	1.20000000E+1	8.93296289E-5
4.16346900E+6	3.98998665E+1	0.00000000E+0	0.00000000E+0	1.60000000E-13	7.15000000E-12	1.10000000E+1	8.93751013E-5
4.16879900E+6	4.00005459E+1	0.00000000E+0	0.00000000E+0	1.70000000E-13	7.04000000E-12	1.20000000E+1	8.91507225E-5
4.17411300E+6	4.00997637E+1	0.00000000E+0	0.00000000E+0	1.20000000E-13	6.95000000E-12	1.50000000E+1	8.89095263E-5
4.17945700E+6	4.02001351E+1	0.00000000E+0	0.00000000E+0	1.00000000E-13	6.78000000E-12	1.80000000E+1	8.89948266E-5
4.18475500E+6	4.02992851E+1	0.00000000E+0	0.00000000E+0	2.30000000E-13	6.71000000E-12	1.80000000E+1	8.87890683E-5
4.19007700E+6	4.04005257E+1	0.00000000E+0	0.00000000E+0	1.20000000E-13	6.57000000E-12	1.70000000E+1	8.95311880E-5
4.19538400E+6	4.04997297E+1	0.00000000E+0	0.00000000E+0	1.10000000E-13	6.45000000E-12	7.00000000E+0	8.92496275E-5
4.20072900E+6	4.06002302E+1	0.00000000E+0	0.00000000E+0	1.00000000E-13	6.34000000E-12	1.20000000E+1	8.91875314E-5
4.20606200E+6	4.06997417E+1	0.00000000E+0	0.00000000E+0	1.80000000E-13	6.20000000E-12	1.10000000E+1	8.93790977E-5
4.21138300E+6	4.08002864E+1	0.00000000E+0	0.00000000E+0	1.10000000E-13	6.08000000E-12	1.60000000E+1	8.93912601E-5
4.21670900E+6	4.08999621E+1	0.00000000E+0	0.00000000E+0	1.20000000E-13	6.01000000E-12	1.80000000E+1	8.92927902E-5
4.22204700E+6	4.10002634E+1	0.00000000E+0	0.00000000E+0	1.50000000E-13	5.91000000E-12	9.00000000E+0	8.94422161E-5
4.22736900E+6	4.10996775E+1	0.00000000E+0	0.00000000E+0	1.00000000E-13	5.75000000E-12	1.30000000E+1	8.93480586E-5
4.23268600E+6	4.11999911E+1	0.00000000E+0	0.00000000E+0	1.00000000E-13	5.68000000E-12	1.20000000E+1	8.94977766E-5
4.23799200E+6	4.13002379E+1	0.00000000E+0	0.00000000E+0	1.40000000E-13	5.61000000E-12	8.00000000E+0	8.95857650E-5
4.24335100E+6	4.13997134E+1	0.00000000E+0	0.00000000E+0	1.30000000E-13	5.43000000E-12	1.20000000E+1	8.96529007E-5
4.24867700E+6	4.15002320E+1	0.00000000E+0	0.00000000E+0	1.00000000E-14	5.33000000E-12	9.00000000E+0	8.96287965E-5
4.25401800E+6	4.16001087E+1	0.00000000E+0	0.00000000E+0	1.40000000E-13	5.38000000E-12	1.20000000E+1	8.94012647E-5
4.25934100E+6	4.17000411E+1	0.00000000E+0	0.00000000E+0	-3.00000000E-14	5.29000000E-12	1.50000000E+1	8.96690833E-5
4.26466700E+6	4.17998836E+1	0.00000000E+0	0.00000000E+0	1.50000000E-13	5.15000000E-12	1.40000000E+1	8.95794290E-5
4.26999800E+6	4.19000619E+1	0.00000000E+0	0.00000000E+0	3.00000000E-14	5.05000000E-12	6.00000000E+0	8.93430816E-5
4.27539900E+6	4.19997125E+1	0.00000000E+0	0.00000000E+0	9.00000000E-14	4.99000000E-12	1.30000000E+1	8.93597382E-5
4.28074400E+6	4.21005624E+1	0.00000000E+0	0.00000000E+0	4.00000000E-14	4.90000000E-12	9.00000000E+0	8.96628666E-5
4.28605000E+6	4.21995695E+1	0.00000000E+0	0.00000000E+0	5.00000000E-14	4.80000000E-12	9.00000000E+0	8.93203067E-5
4.29137900E+6	4.22999206E+1	0.00000000E+0	0.00000000E+0	-1.00000000E-14	4.76000000E-12	1.10000000E+1	8.95974922E-5
4.29669400E+6	4.24001624E+1	0.00000000E+0	0.00000000E+0	9.00000000E-14	4.68000000E-12	6.00000000E+0	8.93215405E-5
4.30200300E+6	4.24998473E+1	0.00000000E+0	0.00000000E+0	1.10000000E-13	4.71000000E-12	8.00000000E+0	8.93514471E-5
4.30734400E+6	4.26001504E+1	0.00000000E+0	0.00000000E+0	1.10000000E-13	4.57000000E-12	1.00000000E+1	8.97160279E-5
4.31266400E+6	4.26998851E+1	0.00000000E+0	0.00000000E+0	7.00000000E-14	4.51000000E-12	9.00000000E+0	8.94489663E-5
4.31801100E+6	4.27999382E+1	0.00000000E+0	0.00000000E+0	2.00000000E-14	4.44000000E-12	9.00000000E+0	8.95136076E-5
4.32330600E+6	4.28997093E+1	0.00000000E+0	0.00000000E+0	3.00000000E-14	4.40000000E-12	1.70000000E+1	8.92978059E-5
4.32936600E+6	4.30002489E+1	0.00000000E+0	0.00000000E+0	5.00000000E-14	4.36000000E-12	1.30000000E+1	8.98495692E-5
4.33468500E+6	4.31001983E+1	0.00000000E+0	0.00000000E+0	2.00000000E-14	4.26000000E-12	4.00000000E+0	8.93854784E-5
4.34002600E+6	4.31998509E+1	0.00000000E+0	0.00000000E+0	4.00000000E-14	4.18000000E-12	6.00000000E+0	8.93051165E-5
4.34535200E+6	4.33002718E+1	0.00000000E+0	0.00000000E+0	1.40000000E-13	4.18000000E-12	5.00000000E+0	8.93523084E-5
4.35066100E+6	4.33999294E+1	0.00000000E+0	0.00000000E+0	6.00000000E-14	4.12000000E-12	6.00000000E+0	8.94495385E-5
4.35597900E+6	4.35003560E+1	0.00000000E+0	0.00000000E+0	-9.00000000E-14	4.02000000E-12	7.00000000E+0	8.91746448E-5
4.36129000E+6	4.35998504E+1	0.00000000E+0	0.00000000E+0	1.20000000E-13	4.01000000E-12	1.00000000E+1	8.92326908E-5
4.36662600E+6	4.36998010E+1	0.00000000E+0	0.00000000E+0	8.00000000E-14	3.96000000E-12	8.00000000E+0	8.93371271E-5
4.37193200E+6	4.38002109E+1	0.00000000E+0	0.00000000E+0	5.00000000E-14	3.94000000E-12	6.00000000E+0	8.94052552E-5
4.37723200E+6	4.38996660E+1	0.00000000E+0	0.00000000E+0	7.00000000E-14	3.87000000E-12	5.00000000E+0	8.93724995E-5
4.38256100E+6	4.39998902E+1	0.00000000E+0	0.00000000E+0	6.00000000E-14	3.77000000E-12	8.00000000E+0	8.92882096E-5
4.38786200E+6	4.40996195E+1	0.00000000E+0	0.00000000E+0	-4.00000000E-14	3.74000000E-12	7.00000000E+0	8.93262016E-5
4.39321200E+6	4.41999616E+1	0.00000000E+0	0.00000000E+0	-4.00000000E-14	3.67000000E-12	1.30000000E+1	8.92246919E-5
4.39852500E+6	4.42999596E+1	0.00000000E+0	0.00000000E+0	8.00000000E-14	3.64000000E-12	1.30000000E+1	8.90986012E-5
4.40383200E+6	4.44000888E+1	0.00000000E+0	0.00000000E+0	2.00000000E-14	3.58000000E-12	1.00000000E+1	8.92978775E-5
4.40915100E+6	4.44998627E+1	0.00000000E+0	0.00000000E+0	1.00000000E-14	3.54000000E-12	9.00000000E+0	8.93086242E-5
4.41450200E+6	4.46000860E+1	0.00000000E+0	0.00000000E+0	2.00000000E-14	3.50000000E-12	4.00000000E+0	8.92198282E-5
4.41986700E+6	4.46999455E+1	0.00000000E+0	0.00000000E+0	1.00000000E-14	3.40000000E-12	7.00000000E+0	8.89506357E-5
4.42514600E+6	4.47997611E+1	0.00000000E+0	0.00000000E+0	-3.00000000E-14	3.35000000E-12	7.00000000E+0	8.94319373E-5
4.43049000E+6	4.48998587E+1	0.00000000E+0	0.00000000E+0	9.00000000E-14	3.30000000E-12	1.00000000E+1	8.91517716E-5
4.43582000E+6	4.50000737E+1	0.00000000E+0	0.00000000E+0	0.00000000E+0	3.23000000E-12	9.00000000E+0	8.94241350E-5
