G:\BEAR_storage\User_Experiments\20220317_arneodo\file(1)_Region 5__0072.txt
Ring Energy (GeV): 2
Lifetime (hours): 15.2761
Scan beginning: 3/21/2022	12:11:15 PM
Ring current (mA): 308.56
Source position: x (mm): 0.007 x' (mrad): -0 y (mm): -0 y' (mrad): 0.001
Scan end: 3/21/2022	12:47:11 PM
Ring current (mA): 309.14
Source position: x (mm): 0.007 x' (mrad): -0.001 y (mm): -0.001 y' (mrad): 0.002

SCAN TYPE: PHOTON ENERGY VS VAR_1 VS VAR_2

FILE INFO: FILE INFO:

SCAN PARAMETERS
waiting time (ms): 0
Number of scans: 1
Current scan number: 1
DARK OFF 
PREDARK OFF 

SCAN PARAMETERS
Regions configuration: 
number of regions: 6
Mirror grating scan: on
Timed acquisition: off
Region 1:
Initial energy (eV): 40.000000
Final energy (eV): 72.000000
Delta energy (eV): 1.000000
Deviation angle choice: Higher order rejection
Deviation angle (°): NaN
Al filter
G1200 channel
range keithley B 20 nA
range keithley C 200 nA
range keithley A 20 nA
Var_1: PsiC 0.000000
Var_2: PhiM0.000000
Bias CEM (V): 0.000000
Bias Keithley B (V): -30.000000
Name region: 
Region 2:
Initial energy (eV): 70.000000
Final energy (eV): 102.000000
Delta energy (eV): 1.000000
Deviation angle choice: Higher order rejection
Deviation angle (°): NaN
Si filter
G1200 channel
range keithley B 20 nA
range keithley C 200 nA
range keithley A 20 nA
Var_1: PsiC 0.000000
Var_2: PhiM0.000000
Bias CEM (V): 0.000000
Bias Keithley B (V): -30.000000
Name region: 
Region 3:
Initial energy (eV): 98.000000
Final energy (eV): 260.000000
Delta energy (eV): 1.000000
Deviation angle choice: Higher order rejection
Deviation angle (°): NaN
Full Beam
G1200 channel
range keithley B 200 nA
range keithley C 200 nA
range keithley A 200 nA
Var_1: PsiC 0.000000
Var_2: PhiM0.000000
Bias CEM (V): 0.000000
Bias Keithley B (V): -30.000000
Name region: 
Region 4:
Initial energy (eV): 255.000000
Final energy (eV): 320.000000
Delta energy (eV): 1.000000
Deviation angle choice: Higher order rejection
Deviation angle (°): NaN
filter Ag 0.6 um
G1200 channel
range keithley B 200 pA
range keithley C 200 nA
range keithley A 200 pA
Var_1: PsiC 0.000000
Var_2: PhiM0.000000
Bias CEM (V): 0.000000
Bias Keithley B (V): -30.000000
Name region: 
Region 5:
Initial energy (eV): 315.000000
Final energy (eV): 1200.000000
Delta energy (eV): 5.000000
Deviation angle choice: Higher order rejection
Deviation angle (°): NaN
Full Beam
G1200 channel
range keithley B 20 nA
range keithley C 200 nA
range keithley A 20 nA
Var_1: PsiC 0.000000
Var_2: PhiM0.000000
Bias CEM (V): 0.000000
Bias Keithley B (V): -30.000000
Name region: 
Region 6:
Initial energy (eV): 1190.000000
Final energy (eV): 1500.000000
Delta energy (eV): 5.000000
Deviation angle choice: Higher order rejection
Deviation angle (°): NaN
filter Ag 0.6 um
G1200 channel
range keithley B 200 pA
range keithley C 200 nA
range keithley A 200 pA
Var_1: PsiC 0.000000
Var_2: PhiM0.000000
Bias CEM (V): 0.000000
Bias Keithley B (V): -30.000000
Name region: 

BEAR MONOCHROMATOR CONFIGURATION: 
Current Grating Position:     -146245.10
Current Mirror Position: 2556.9
Current Grating: G1200
P2 phiz position:  0.0000
Mono axis position: 25.0000
Current Photon Energy (eV): 136.999
Current Deviation Angle: 155.000
Vertical Exit Slits (um): 100.000
Exit slit y axis position: 1.3625
Horizontal Exit Slits (um):  889.156
Exit slit z axis position: 1.9229
Mitutoyo position (mm): 

Dose on sample (mJ/cm^2): NaN

ENERGY CALIBRATION:
offset grating G1200: yes
Delta 0 order G1200:  -1100.0
offset grating G1800: not
Delta 0 order G1800:  0.0
offset grating GNIM: not
Delta 0 order GNIM:  0.0
ZERO ORDER POSITIONS:
Grating G1200: Mirror position:  4938.0
Grating position: -105355.0
Grating G1800: 
Mirror position:  4938.0
Grating position: -106345.0
Grating GNIM: 
Mirror position:  10000.0
Grating position: 227300.0

Initial filter: Full Beam

EXPERIMENTAL CHAMBER CONFIGURATION: 
PsiC (deg):   -0.000186
Phi Analyzer (degrees): 89.992308
Theta Manipulator (degrees): -44.000040
Theta Analyzer (degrees): -135.001468
PhiM (degrees): -0.003077
XM (mm): -4.499188
YM (mm): 22.974263
ZM (mm): (Warning: for kinetic energy scans, 
this parameter is given in the scan settings) 
-14.001425
TiltM (°): 0.000138

ELECTRON ANALYZER CONFIGURATION: 
Current Kinetik energy (eV): 35.0
Mode: DE = COST
Pass Energy (eV):  100.000
CEM: ON
Bias Front-Back CEM (V): 3499.561
Bias Back-Collector CEM (V): 100.874
Bias Retard-Front CEM: 100.087COIL VALUES
Ix (amps):2.820
Iy (amps): 6.789
Iz (amps): 37.337

POLARIZATION SELECTOR CONFIGURATION:
Psi1 (rad): -0.001665535
Psi2 (rad): 0.001417093
Z min position (mm): 46.599650
DZ position (mm): 18.599100
Zmin 0 (mm): 66.500000
DZ0 (mm): 53.000000

BEAM SELECTOR CONFIGURATION:
Zmin position (mm): NaN
DZ position (mm): NaN
Y+ position (mm): NaN
Y- position (mm): NaN

CHANNEL ELECTRON MULTIPLIER CONFIGURATION:
CEM configured: OFF
Bias CEM: 0.000000

FLUORESCENCE DETECTOR CONFIGURATION:
Not configured

LUMINESCENCE MONOCHROMATOR CONFIGURATION:
Optical fiber position (mm): 0.000000
Optical fiber Switch inside: OFF
Optical fiber Switch outside: ON
Monochromator wavelength (A): 0.000000
Limit Switches: ON

I0 MONITOR PARAMETERS:
I0 detector position(mm): -1.924999E+2
Lower switch: OFF
Upper switch: OFF
Valve status:open

PRESSURE PARAMETERS:
Monitor chamber pressure (mbar): 9.313e-10
Experimental chamber pressure -ION GAUGE-(mbar): 0.000000E+0

XMCD PARAMETERS:
Xmcd OFF
Xmcd Direction -
Xmcd current (A): 0.000000

Gated scan off

Instrument 1: AMMETER KEITHLEY 6517A B
Measure type: Current
range type: set range value
range value (ampere):  20 nA
Integration time:  set NPLC value
NPLC value: 10.000
Digital filter count: 2
SAMPLE BIAS (V): -30.000
Vsource: ON
Output Voltage value: 30.000
Vsource range: 1000 V

Range Keithley B changed to 200 nA

Range Keithley B changed to 200 pA

Range Keithley B changed to 20 nA

Range Keithley B changed to 200 pA

Instrument 2: AMMETER KEITHLEY 6517A A
Measure type: Current
range type: set range value
range value (ampere):  200 nA
Integration time:  set NPLC value
NPLC value: 10.000
Digital filter count: 2
Vsource: OFF
Output Voltage value: -0.000
Vsource range: 100 V
Trigger source: bus

Range Keithley A changed to 20 nA

Range Keithley A changed to 200 nA

Range Keithley A changed to 200 pA

Range Keithley A changed to 20 nA

Range Keithley A changed to 200 pA

Range Keithley A changed to 20 nA

Range Keithley A changed to 200 nA

Range Keithley A changed to 200 pA

Range Keithley A changed to 20 nA

Range Keithley A changed to 200 pA

Range Keithley A changed to 20 nA

Range Keithley A changed to 200 nA

Range Keithley A changed to 200 pA

Range Keithley A changed to 20 nA

Range Keithley A changed to 200 pA

Range Keithley A changed to 20 nA

Range Keithley A changed to 200 pA

Range Keithley A changed to 20 nA

Range Keithley A changed to 200 pA

Range Keithley A changed to 20 nA

Range Keithley A changed to 200 pA

Range Keithley A changed to 20 nA

Range Keithley A changed to 200 nA

Range Keithley A changed to 200 pA

Range Keithley A changed to 20 nA

Range Keithley A changed to 200 pA

Range Keithley A changed to 20 nA

Range Keithley A changed to 200 nA

Range Keithley A changed to 200 pA

Range Keithley A changed to 20 nA

Range Keithley A changed to 200 nA

Range Keithley A changed to 200 pA

Range Keithley A changed to 20 nA

Range Keithley A changed to 200 pA

Range Keithley A changed to 20 nA

Range Keithley A changed to 200 pA

Range Keithley A changed to 20 nA

Range Keithley A changed to 200 nA

Range Keithley A changed to 200 pA

Range Keithley A changed to 20 nA

Range Keithley A changed to 200 pA

Range Keithley A changed to 20 nA

Range Keithley A changed to 200 nA

Range Keithley A changed to 20 nA

Range Keithley A changed to 200 nA

Range Keithley A changed to 200 pA

Range Keithley A changed to 20 nA

Range Keithley A changed to 200 nA

Range Keithley A changed to 2 uA

Range Keithley A changed to 20 nA

Range Keithley A changed to 200 nA

Range Keithley A changed to 2 uA

Range Keithley A changed to 20 nA

Range Keithley A changed to 200 nA

Range Keithley A changed to 200 pA

Range Keithley A changed to 2 uA

Range Keithley A changed to 20 nA

Range Keithley A changed to 200 nA

Range Keithley A changed to 200 pA

Range Keithley A changed to 20 nA

Range Keithley A changed to 2 uA

Range Keithley A changed to 20 nA

Range Keithley A changed to 200 nA

Range Keithley A changed to 20 nA

Range Keithley A changed to 200 nA

Range Keithley A changed to 200 pA

Range Keithley A changed to 2 uA

Range Keithley A changed to 20 nA

Range Keithley A changed to 200 nA

Range Keithley A changed to 20 nA

Range Keithley A changed to 200 nA

Range Keithley A changed to 200 pA

Range Keithley A changed to 20 nA

Range Keithley A changed to 200 nA

Range Keithley A changed to 20 nA

Range Keithley A changed to 200 nA

Range Keithley A changed to 200 pA

Range Keithley A changed to 20 nA

Range Keithley A changed to 200 nA

Range Keithley A changed to 200 pA

Range Keithley A changed to 20 nA

Range Keithley A changed to 200 pA

Range Keithley A changed to 20 nA

Range Keithley A changed to 200 pA

Range Keithley A changed to 20 nA

Range Keithley A changed to 200 pA

Range Keithley A changed to 20 nA

Range Keithley A changed to 200 pA

Range Keithley A changed to 20 nA

Range Keithley A changed to 200 nA

Range Keithley A changed to 2 uA

Range Keithley A changed to 20 uA

Range Keithley A changed to 200 uA

Range Keithley A changed to 20 nA

Range Keithley A changed to 200 nA

Range Keithley A changed to 200 pA

Range Keithley A changed to 20 nA

Range Keithley A changed to 200 pA

Range Keithley A changed to 20 nA

Range Keithley A changed to 200 nA

Range Keithley A changed to 20 nA

Range Keithley A changed to 200 nA

Range Keithley A changed to 200 pA

Range Keithley A changed to 20 nA

Range Keithley A changed to 200 pA

Instrument 3: COUNTER ORTEC 996Integration time (sec): 1.000


Range Keithley C changed to 200 nA


________________________________________________________________________________

RelativeTime (msec)	Photon Energy	Var_1	Var_2	INSTR_1_Sample with Bias _(ampere ) 	INSTR_2_Monitor IM_(ampere)  	INSTR_3_Ortec 996 counts_(counts)	I_BPM_sum (Amps)	
________________________________________________________________________________

1.35855700E+6	3.14985638E+2	0.00000000E+0	0.00000000E+0	1.92830000E-10	1.41644000E-9	5.89000000E+2	8.88610648E-5
1.36409500E+6	3.20015627E+2	0.00000000E+0	0.00000000E+0	2.36300000E-10	1.48193000E-9	7.28000000E+2	8.90606331E-5
1.36871900E+6	3.24986949E+2	0.00000000E+0	0.00000000E+0	2.36540000E-10	1.47555000E-9	7.09000000E+2	8.86845098E-5
1.37345000E+6	3.29995970E+2	0.00000000E+0	0.00000000E+0	2.26170000E-10	1.45820000E-9	6.89000000E+2	8.87814568E-5
1.37812500E+6	3.34981737E+2	0.00000000E+0	0.00000000E+0	2.18650000E-10	1.43653000E-9	7.02000000E+2	8.90683519E-5
1.38282300E+6	3.39996278E+2	0.00000000E+0	0.00000000E+0	2.28470000E-10	1.47983000E-9	7.00000000E+2	8.87298362E-5
1.38817700E+6	3.45015323E+2	0.00000000E+0	0.00000000E+0	2.36990000E-10	1.49975000E-9	6.93000000E+2	8.89155077E-5
1.39289100E+6	3.50009215E+2	0.00000000E+0	0.00000000E+0	2.32260000E-10	1.46388000E-9	6.58000000E+2	8.90894400E-5
1.39781500E+6	3.55013047E+2	0.00000000E+0	0.00000000E+0	2.31060000E-10	1.47958000E-9	7.00000000E+2	8.88097631E-5
1.40268000E+6	3.59983863E+2	0.00000000E+0	0.00000000E+0	2.50120000E-10	1.53725000E-9	7.16000000E+2	8.89652030E-5
1.40753200E+6	3.64973354E+2	0.00000000E+0	0.00000000E+0	2.69430000E-10	1.63389000E-9	7.33000000E+2	8.86011319E-5
1.41241600E+6	3.69999936E+2	0.00000000E+0	0.00000000E+0	2.70270000E-10	1.70844000E-9	7.86000000E+2	8.92071949E-5
1.41732300E+6	3.75041652E+2	0.00000000E+0	0.00000000E+0	2.73210000E-10	1.74572000E-9	7.92000000E+2	8.86658685E-5
1.42224200E+6	3.79985517E+2	0.00000000E+0	0.00000000E+0	2.79620000E-10	1.77689000E-9	7.86000000E+2	8.91145276E-5
1.42720500E+6	3.84994775E+2	0.00000000E+0	0.00000000E+0	2.93960000E-10	1.84637000E-9	7.66000000E+2	8.87953536E-5
1.43210700E+6	3.89959738E+2	0.00000000E+0	0.00000000E+0	3.12180000E-10	1.95020000E-9	8.79000000E+2	8.91393172E-5
1.43698200E+6	3.95040984E+2	0.00000000E+0	0.00000000E+0	3.21790000E-10	2.02416000E-9	8.50000000E+2	8.91897427E-5
1.44190200E+6	4.00018814E+2	0.00000000E+0	0.00000000E+0	3.23630000E-10	2.06010000E-9	9.16000000E+2	8.91997265E-5
1.44684700E+6	4.04985992E+2	0.00000000E+0	0.00000000E+0	3.24480000E-10	2.09330000E-9	8.96000000E+2	8.90571700E-5
1.45172300E+6	4.09972473E+2	0.00000000E+0	0.00000000E+0	2.92520000E-10	2.08544000E-9	8.17000000E+2	8.89992999E-5
1.45673100E+6	4.14985753E+2	0.00000000E+0	0.00000000E+0	3.37590000E-10	2.27708000E-9	8.83000000E+2	8.89668362E-5
1.46159200E+6	4.20036157E+2	0.00000000E+0	0.00000000E+0	3.18130000E-10	2.30624000E-9	8.20000000E+2	8.91882496E-5
1.46647500E+6	4.25012943E+2	0.00000000E+0	0.00000000E+0	3.62310000E-10	2.47010000E-9	9.69000000E+2	8.94783604E-5
1.47136800E+6	4.29992404E+2	0.00000000E+0	0.00000000E+0	3.96490000E-10	2.59558000E-9	1.05300000E+3	8.95821321E-5
1.47625100E+6	4.34975319E+2	0.00000000E+0	0.00000000E+0	4.23150000E-10	2.72513000E-9	1.05500000E+3	8.88341622E-5
1.48110600E+6	4.39990543E+2	0.00000000E+0	0.00000000E+0	4.49370000E-10	2.85825000E-9	1.19500000E+3	8.89341699E-5
1.48595700E+6	4.45029393E+2	0.00000000E+0	0.00000000E+0	4.63420000E-10	2.95057000E-9	1.17800000E+3	8.93130170E-5
1.49087200E+6	4.50022576E+2	0.00000000E+0	0.00000000E+0	4.76350000E-10	3.05788000E-9	1.18900000E+3	8.92954426E-5
1.49558900E+6	4.54966568E+2	0.00000000E+0	0.00000000E+0	4.78890000E-10	3.09776000E-9	1.22300000E+3	8.90559869E-5
1.50028900E+6	4.59981279E+2	0.00000000E+0	0.00000000E+0	4.86770000E-10	3.15410000E-9	1.27100000E+3	8.89379786E-5
1.50493800E+6	4.64985209E+2	0.00000000E+0	0.00000000E+0	4.97050000E-10	3.22358000E-9	1.20400000E+3	8.90577005E-5
1.50959300E+6	4.70006970E+2	0.00000000E+0	0.00000000E+0	5.01670000E-10	3.27255000E-9	1.28000000E+3	8.92571168E-5
1.51432600E+6	4.75025217E+2	0.00000000E+0	0.00000000E+0	5.00640000E-10	3.29480000E-9	1.27800000E+3	8.87795524E-5
1.51904300E+6	4.80004546E+2	0.00000000E+0	0.00000000E+0	4.99710000E-10	3.31895000E-9	1.28400000E+3	8.89663087E-5
1.52365000E+6	4.84989010E+2	0.00000000E+0	0.00000000E+0	5.02880000E-10	3.37364000E-9	1.29600000E+3	8.93417644E-5
1.52830900E+6	4.90002079E+2	0.00000000E+0	0.00000000E+0	5.09070000E-10	3.44816000E-9	1.23300000E+3	8.90580224E-5
1.53290400E+6	4.94972649E+2	0.00000000E+0	0.00000000E+0	5.16770000E-10	3.52537000E-9	1.29400000E+3	8.92225640E-5
1.53749300E+6	5.00001719E+2	0.00000000E+0	0.00000000E+0	5.22180000E-10	3.59161000E-9	1.25400000E+3	8.87446539E-5
1.54226700E+6	5.05013010E+2	0.00000000E+0	0.00000000E+0	5.21760000E-10	3.61522000E-9	1.32100000E+3	8.87339966E-5
1.54688000E+6	5.10021187E+2	0.00000000E+0	0.00000000E+0	5.14140000E-10	3.59027000E-9	1.36200000E+3	8.93105584E-5
1.55147100E+6	5.15001936E+2	0.00000000E+0	0.00000000E+0	5.02710000E-10	3.54502000E-9	1.21700000E+3	8.89566677E-5
1.55619800E+6	5.19980514E+2	0.00000000E+0	0.00000000E+0	4.89560000E-10	3.47863000E-9	1.21500000E+3	8.88932960E-5
1.56091300E+6	5.24985198E+2	0.00000000E+0	0.00000000E+0	4.71980000E-10	3.38371000E-9	1.24200000E+3	8.89787869E-5
1.56562300E+6	5.29981933E+2	0.00000000E+0	0.00000000E+0	4.50410000E-10	3.25912000E-9	1.14900000E+3	8.90843796E-5
1.57021500E+6	5.35014834E+2	0.00000000E+0	0.00000000E+0	4.29660000E-10	3.13547000E-9	1.09400000E+3	8.88976889E-5
1.57492200E+6	5.39993921E+2	0.00000000E+0	0.00000000E+0	4.55490000E-10	3.36489000E-9	1.10300000E+3	8.88589905E-5
1.57963600E+6	5.45026828E+2	0.00000000E+0	0.00000000E+0	4.75630000E-10	3.61621000E-9	1.14200000E+3	8.86668490E-5
1.58434400E+6	5.50000163E+2	0.00000000E+0	0.00000000E+0	6.48790000E-10	3.97213000E-9	1.55500000E+3	8.90212314E-5
1.58900900E+6	5.54995815E+2	0.00000000E+0	0.00000000E+0	6.01940000E-10	4.13940000E-9	1.45100000E+3	8.88660626E-5
1.59374900E+6	5.59984751E+2	0.00000000E+0	0.00000000E+0	6.61930000E-10	4.36737000E-9	1.59400000E+3	8.90712755E-5
1.59834600E+6	5.64998182E+2	0.00000000E+0	0.00000000E+0	6.85470000E-10	4.55043000E-9	1.51200000E+3	8.88805257E-5
1.60309000E+6	5.69966783E+2	0.00000000E+0	0.00000000E+0	7.21190000E-10	4.79341000E-9	1.66700000E+3	8.89213430E-5
1.60780900E+6	5.75022980E+2	0.00000000E+0	0.00000000E+0	7.71000000E-10	5.05503000E-9	1.76700000E+3	8.88099150E-5
1.61240900E+6	5.80032288E+2	0.00000000E+0	0.00000000E+0	8.01180000E-10	5.23563000E-9	1.81900000E+3	8.89211463E-5
1.61715100E+6	5.85003970E+2	0.00000000E+0	0.00000000E+0	8.03890000E-10	5.30365000E-9	1.91900000E+3	8.89180766E-5
1.62184000E+6	5.89972510E+2	0.00000000E+0	0.00000000E+0	8.14800000E-10	5.42931000E-9	1.79500000E+3	8.88584511E-5
1.62717700E+6	5.95004385E+2	0.00000000E+0	0.00000000E+0	8.46130000E-10	5.61590000E-9	1.90100000E+3	8.89789240E-5
1.63177100E+6	5.99978133E+2	0.00000000E+0	0.00000000E+0	8.68940000E-10	5.82576000E-9	1.97500000E+3	8.89483260E-5
1.63649000E+6	6.05000345E+2	0.00000000E+0	0.00000000E+0	9.02080000E-10	6.04348000E-9	1.94800000E+3	8.88155000E-5
1.64121900E+6	6.10000549E+2	0.00000000E+0	0.00000000E+0	9.27280000E-10	6.26462000E-9	2.08600000E+3	8.89974551E-5
1.64592900E+6	6.15039981E+2	0.00000000E+0	0.00000000E+0	9.42650000E-10	6.40965000E-9	2.10400000E+3	8.89959471E-5
1.65060900E+6	6.20001783E+2	0.00000000E+0	0.00000000E+0	9.51870000E-10	6.53005000E-9	2.08600000E+3	8.92015802E-5
1.65530700E+6	6.24980241E+2	0.00000000E+0	0.00000000E+0	9.66220000E-10	6.68818000E-9	2.13000000E+3	8.90240358E-5
1.65992200E+6	6.29977789E+2	0.00000000E+0	0.00000000E+0	1.00499000E-9	7.01014000E-9	2.22100000E+3	8.90676694E-5
1.66455400E+6	6.34982275E+2	0.00000000E+0	0.00000000E+0	1.09861000E-9	7.70387000E-9	2.40100000E+3	8.92225521E-5
1.66917000E+6	6.39998326E+2	0.00000000E+0	0.00000000E+0	1.15494000E-9	8.13798000E-9	2.46900000E+3	8.94459175E-5
1.67376000E+6	6.45022970E+2	0.00000000E+0	0.00000000E+0	1.18439000E-9	8.40663000E-9	2.46100000E+3	8.90221165E-5
1.67848600E+6	6.50016607E+2	0.00000000E+0	0.00000000E+0	1.20151000E-9	8.60258000E-9	2.59900000E+3	8.94750702E-5
1.68314600E+6	6.55027659E+2	0.00000000E+0	0.00000000E+0	1.22426000E-9	8.80987000E-9	2.58100000E+3	8.90847283E-5
1.68774100E+6	6.59981407E+2	0.00000000E+0	0.00000000E+0	1.25930000E-9	9.12825000E-9	2.65400000E+3	8.92533439E-5
1.69245300E+6	6.64953849E+2	0.00000000E+0	0.00000000E+0	1.29630000E-9	9.44090000E-9	2.78000000E+3	8.89572786E-5
1.69718800E+6	6.70001023E+2	0.00000000E+0	0.00000000E+0	1.33116000E-9	9.74029000E-9	2.70800000E+3	8.92180192E-5
1.70181500E+6	6.75011348E+2	0.00000000E+0	0.00000000E+0	1.36068000E-9	1.00077200E-8	2.78300000E+3	8.88999181E-5
1.70651900E+6	6.80016143E+2	0.00000000E+0	0.00000000E+0	1.38394000E-9	1.02415400E-8	2.78700000E+3	8.88367997E-5
1.71125600E+6	6.85003303E+2	0.00000000E+0	0.00000000E+0	1.40423000E-9	1.04556800E-8	2.80500000E+3	8.93946456E-5
1.71585600E+6	6.90018993E+2	0.00000000E+0	0.00000000E+0	1.42207000E-9	1.06563800E-8	2.91400000E+3	8.92916398E-5
1.72046400E+6	6.94987753E+2	0.00000000E+0	0.00000000E+0	1.44343000E-9	1.08753200E-8	2.97700000E+3	8.86258887E-5
1.72508500E+6	6.99970561E+2	0.00000000E+0	0.00000000E+0	1.46674000E-9	1.11066100E-8	2.95400000E+3	8.92627763E-5
1.72980800E+6	7.04977841E+2	0.00000000E+0	0.00000000E+0	1.48960000E-9	1.13611800E-8	2.94700000E+3	8.86374013E-5
1.73458800E+6	7.10014895E+2	0.00000000E+0	0.00000000E+0	1.51040000E-9	1.15742500E-8	2.95500000E+3	8.91818361E-5
1.73941600E+6	7.15022030E+2	0.00000000E+0	0.00000000E+0	1.52094000E-9	1.16974200E-8	2.95900000E+3	8.90669839E-5
1.74407700E+6	7.20025104E+2	0.00000000E+0	0.00000000E+0	1.51909000E-9	1.17334800E-8	3.06200000E+3	8.91330408E-5
1.74888300E+6	7.24966094E+2	0.00000000E+0	0.00000000E+0	1.55285000E-9	1.18068500E-8	3.08400000E+3	8.88943182E-5
1.75370600E+6	7.29990859E+2	0.00000000E+0	0.00000000E+0	1.53765000E-9	1.19228300E-8	2.99400000E+3	8.92706292E-5
1.75847200E+6	7.34985146E+2	0.00000000E+0	0.00000000E+0	1.54202000E-9	1.19356200E-8	3.10700000E+3	8.91390132E-5
1.76319400E+6	7.40012667E+2	0.00000000E+0	0.00000000E+0	1.54822000E-9	1.20616100E-8	3.15100000E+3	8.92209875E-5
1.76797000E+6	7.44995353E+2	0.00000000E+0	0.00000000E+0	1.54990000E-9	1.21267400E-8	3.08600000E+3	8.90724288E-5
1.77272700E+6	7.50016360E+2	0.00000000E+0	0.00000000E+0	1.55784000E-9	1.22076900E-8	3.20700000E+3	8.88647841E-5
1.77727800E+6	7.55008564E+2	0.00000000E+0	0.00000000E+0	1.57576000E-9	1.23441200E-8	3.06400000E+3	8.86544721E-5
1.78182200E+6	7.59999382E+2	0.00000000E+0	0.00000000E+0	1.59516000E-9	1.24863200E-8	3.16700000E+3	8.89854090E-5
1.78625500E+6	7.65001257E+2	0.00000000E+0	0.00000000E+0	1.59715000E-9	1.25088500E-8	3.07500000E+3	8.90051084E-5
1.79075500E+6	7.69993023E+2	0.00000000E+0	0.00000000E+0	1.59241000E-9	1.24729300E-8	3.00500000E+3	8.91490715E-5
1.79528800E+6	7.74992447E+2	0.00000000E+0	0.00000000E+0	1.59379000E-9	1.24768000E-8	3.00600000E+3	8.84140031E-5
1.79980400E+6	7.79994410E+2	0.00000000E+0	0.00000000E+0	1.60693000E-9	1.25598600E-8	3.19700000E+3	8.88662534E-5
1.80431600E+6	7.84998778E+2	0.00000000E+0	0.00000000E+0	1.62756000E-9	1.26946100E-8	3.08700000E+3	8.89565574E-5
1.80879300E+6	7.89999366E+2	0.00000000E+0	0.00000000E+0	1.64325000E-9	1.27842900E-8	3.05800000E+3	8.90353786E-5
1.81335300E+6	7.95015104E+2	0.00000000E+0	0.00000000E+0	1.64826000E-9	1.27851000E-8	3.06000000E+3	8.87800263E-5
1.81787700E+6	8.00003475E+2	0.00000000E+0	0.00000000E+0	1.64710000E-9	1.27321500E-8	3.12000000E+3	8.89887648E-5
1.82233500E+6	8.05008241E+2	0.00000000E+0	0.00000000E+0	1.63836000E-9	1.26273000E-8	3.06800000E+3	8.87171821E-5
1.82685200E+6	8.09996470E+2	0.00000000E+0	0.00000000E+0	1.62630000E-9	1.24815900E-8	3.05600000E+3	8.91738789E-5
1.83132100E+6	8.14993589E+2	0.00000000E+0	0.00000000E+0	1.61185000E-9	1.23161000E-8	3.01900000E+3	8.90703844E-5
1.83595900E+6	8.19995963E+2	0.00000000E+0	0.00000000E+0	1.59830000E-9	1.21587700E-8	3.01900000E+3	8.89322476E-5
1.84056900E+6	8.24998270E+2	0.00000000E+0	0.00000000E+0	1.58768000E-9	1.20178300E-8	2.94600000E+3	8.91405718E-5
1.84504800E+6	8.30003901E+2	0.00000000E+0	0.00000000E+0	1.57938000E-9	1.18923800E-8	2.85500000E+3	8.88425039E-5
1.84954800E+6	8.34979533E+2	0.00000000E+0	0.00000000E+0	1.56953000E-9	1.17498500E-8	2.88400000E+3	8.85831879E-5
1.85405500E+6	8.39990270E+2	0.00000000E+0	0.00000000E+0	1.55650000E-9	1.15847100E-8	2.85800000E+3	8.86948840E-5
1.85928400E+6	8.45014612E+2	0.00000000E+0	0.00000000E+0	1.54448000E-9	1.14220900E-8	2.73100000E+3	8.92454284E-5
1.86378700E+6	8.50016004E+2	0.00000000E+0	0.00000000E+0	1.53732000E-9	1.12819700E-8	2.80800000E+3	8.91256021E-5
1.86770100E+6	8.55006081E+2	0.00000000E+0	0.00000000E+0	1.52511000E-9	1.11081900E-8	2.76400000E+3	8.91744750E-5
1.87164100E+6	8.59993880E+2	0.00000000E+0	0.00000000E+0	1.51509000E-9	1.09421400E-8	2.79500000E+3	8.92060505E-5
1.87572100E+6	8.65002580E+2	0.00000000E+0	0.00000000E+0	1.50613000E-9	1.07765100E-8	2.72700000E+3	8.89771329E-5
1.87962100E+6	8.69999712E+2	0.00000000E+0	0.00000000E+0	1.49866000E-9	1.06227100E-8	2.64900000E+3	8.93636572E-5
1.88356800E+6	8.75002244E+2	0.00000000E+0	0.00000000E+0	1.48982000E-9	1.04627200E-8	2.66800000E+3	8.91086834E-5
1.88748100E+6	8.80000455E+2	0.00000000E+0	0.00000000E+0	1.48135000E-9	1.03007900E-8	2.49600000E+3	8.92610805E-5
1.89142100E+6	8.84996610E+2	0.00000000E+0	0.00000000E+0	1.47346000E-9	1.01414700E-8	2.57400000E+3	8.93145817E-5
1.89539900E+6	8.90004004E+2	0.00000000E+0	0.00000000E+0	1.46515000E-9	9.99020000E-9	2.51100000E+3	8.92138647E-5
1.89939200E+6	8.94998411E+2	0.00000000E+0	0.00000000E+0	1.45786000E-9	9.83701000E-9	2.46700000E+3	8.91574787E-5
1.90330900E+6	8.99994277E+2	0.00000000E+0	0.00000000E+0	1.44955000E-9	9.68484000E-9	2.48600000E+3	8.92411756E-5
1.90725300E+6	9.05003078E+2	0.00000000E+0	0.00000000E+0	1.44186000E-9	9.53077000E-9	2.62600000E+3	8.93317836E-5
1.91121300E+6	9.10013183E+2	0.00000000E+0	0.00000000E+0	1.43288000E-9	9.37520000E-9	2.65200000E+3	8.88862597E-5
1.91512000E+6	9.14989639E+2	0.00000000E+0	0.00000000E+0	1.42433000E-9	9.22207000E-9	2.56900000E+3	8.89215128E-5
1.91911800E+6	9.19997046E+2	0.00000000E+0	0.00000000E+0	1.41446000E-9	9.06748000E-9	2.41400000E+3	8.90375065E-5
1.92304200E+6	9.25006041E+2	0.00000000E+0	0.00000000E+0	1.40472000E-9	8.91102000E-9	2.41100000E+3	8.92757045E-5
1.92698500E+6	9.30006055E+2	0.00000000E+0	0.00000000E+0	1.39355000E-9	8.75399000E-9	2.53100000E+3	8.89604019E-5
1.93096300E+6	9.34991001E+2	0.00000000E+0	0.00000000E+0	1.38059000E-9	8.58798000E-9	2.36400000E+3	8.95005541E-5
1.93483900E+6	9.40005366E+2	0.00000000E+0	0.00000000E+0	1.36599000E-9	8.41427000E-9	2.32500000E+3	8.93389510E-5
1.93879600E+6	9.44994544E+2	0.00000000E+0	0.00000000E+0	1.34921000E-9	8.22039000E-9	2.34100000E+3	8.90677826E-5
1.94272200E+6	9.50000760E+2	0.00000000E+0	0.00000000E+0	1.33622000E-9	8.06321000E-9	2.33600000E+3	8.91818063E-5
1.94655200E+6	9.55000170E+2	0.00000000E+0	0.00000000E+0	1.31948000E-9	7.89831000E-9	2.29500000E+3	8.89540123E-5
1.95037800E+6	9.59984976E+2	0.00000000E+0	0.00000000E+0	1.30335000E-9	7.73762000E-9	2.26500000E+3	8.89854746E-5
1.95418400E+6	9.65012089E+2	0.00000000E+0	0.00000000E+0	1.28883000E-9	7.58537000E-9	2.24600000E+3	8.87293832E-5
1.95800200E+6	9.70005041E+2	0.00000000E+0	0.00000000E+0	1.27660000E-9	7.44473000E-9	2.20500000E+3	8.88907419E-5
1.96176800E+6	9.75011049E+2	0.00000000E+0	0.00000000E+0	1.26346000E-9	7.31418000E-9	2.23000000E+3	8.89095412E-5
1.96558000E+6	9.80004476E+2	0.00000000E+0	0.00000000E+0	1.25172000E-9	7.19294000E-9	2.16300000E+3	8.92819481E-5
1.96940100E+6	9.84994964E+2	0.00000000E+0	0.00000000E+0	1.24030000E-9	7.07492000E-9	2.13400000E+3	8.91609596E-5
1.97317300E+6	9.89995948E+2	0.00000000E+0	0.00000000E+0	1.22738000E-9	6.95253000E-9	2.07900000E+3	8.89285611E-5
1.97692100E+6	9.94997774E+2	0.00000000E+0	0.00000000E+0	1.21401000E-9	6.83488000E-9	2.05600000E+3	8.91288923E-5
1.98074900E+6	9.99994129E+2	0.00000000E+0	0.00000000E+0	1.20088000E-9	6.72142000E-9	2.06800000E+3	8.89763640E-5
1.98452700E+6	1.00502150E+3	0.00000000E+0	0.00000000E+0	1.18705000E-9	6.60674000E-9	2.04200000E+3	8.90777992E-5
1.98830100E+6	1.00998542E+3	0.00000000E+0	0.00000000E+0	1.17208000E-9	6.49457000E-9	2.09500000E+3	8.90959458E-5
1.99211200E+6	1.01500220E+3	0.00000000E+0	0.00000000E+0	1.15758000E-9	6.38200000E-9	1.95800000E+3	8.91003417E-5
1.99590300E+6	1.02000235E+3	0.00000000E+0	0.00000000E+0	1.14305000E-9	6.27356000E-9	2.02300000E+3	8.89161574E-5
1.99966300E+6	1.02499993E+3	0.00000000E+0	0.00000000E+0	1.12883000E-9	6.17097000E-9	1.92300000E+3	8.86912690E-5
2.00345700E+6	1.02998049E+3	0.00000000E+0	0.00000000E+0	1.11530000E-9	6.07247000E-9	1.90200000E+3	8.91566264E-5
2.00724800E+6	1.03501497E+3	0.00000000E+0	0.00000000E+0	1.09982000E-9	5.96922000E-9	1.90000000E+3	8.90415804E-5
2.01106700E+6	1.04001226E+3	0.00000000E+0	0.00000000E+0	1.08412000E-9	5.86241000E-9	1.84800000E+3	8.93876957E-5
2.01488300E+6	1.04501248E+3	0.00000000E+0	0.00000000E+0	1.06649000E-9	5.75368000E-9	1.85500000E+3	8.90933024E-5
2.01868600E+6	1.04998075E+3	0.00000000E+0	0.00000000E+0	1.04819000E-9	5.64358000E-9	1.80800000E+3	8.86773990E-5
2.02289700E+6	1.05498332E+3	0.00000000E+0	0.00000000E+0	1.03623000E-9	5.57154000E-9	1.78500000E+3	8.92933565E-5
2.02706900E+6	1.06001990E+3	0.00000000E+0	0.00000000E+0	1.02193000E-9	5.48905000E-9	1.75700000E+3	8.88741599E-5
2.03131600E+6	1.06500200E+3	0.00000000E+0	0.00000000E+0	1.00791000E-9	5.40986000E-9	1.73900000E+3	8.87713181E-5
2.03553500E+6	1.07001139E+3	0.00000000E+0	0.00000000E+0	9.90560000E-10	5.31867000E-9	1.71000000E+3	8.90695112E-5
2.03964000E+6	1.07501197E+3	0.00000000E+0	0.00000000E+0	9.72120000E-10	5.22478000E-9	1.62900000E+3	8.89721976E-5
2.04379900E+6	1.08000236E+3	0.00000000E+0	0.00000000E+0	9.51930000E-10	5.12210000E-9	1.62900000E+3	8.88918595E-5
2.04795200E+6	1.08500290E+3	0.00000000E+0	0.00000000E+0	9.45650000E-10	5.01394000E-9	1.61800000E+3	8.85712193E-5
2.05216000E+6	1.08998390E+3	0.00000000E+0	0.00000000E+0	9.46750000E-10	4.91301000E-9	1.64600000E+3	8.85872082E-5
2.05718800E+6	1.09498761E+3	0.00000000E+0	0.00000000E+0	9.17210000E-10	4.82135000E-9	1.59100000E+3	8.87336241E-5
2.06123800E+6	1.10003105E+3	0.00000000E+0	0.00000000E+0	8.93460000E-10	4.73200000E-9	1.62500000E+3	8.90527325E-5
2.06548200E+6	1.10496963E+3	0.00000000E+0	0.00000000E+0	8.73370000E-10	4.64271000E-9	1.54300000E+3	8.93854278E-5
2.06955300E+6	1.11001933E+3	0.00000000E+0	0.00000000E+0	8.55920000E-10	4.55520000E-9	1.56700000E+3	8.88810443E-5
2.07379000E+6	1.11499658E+3	0.00000000E+0	0.00000000E+0	8.37610000E-10	4.46756000E-9	1.52700000E+3	8.89622109E-5
2.07801400E+6	1.11997266E+3	0.00000000E+0	0.00000000E+0	8.16980000E-10	4.37944000E-9	1.39400000E+3	8.86956589E-5
2.08211700E+6	1.12504148E+3	0.00000000E+0	0.00000000E+0	7.95520000E-10	4.29237000E-9	1.40700000E+3	8.85377423E-5
2.08624200E+6	1.12997284E+3	0.00000000E+0	0.00000000E+0	7.74500000E-10	4.20669000E-9	1.37900000E+3	8.88522641E-5
2.09045400E+6	1.13499558E+3	0.00000000E+0	0.00000000E+0	7.54590000E-10	4.12067000E-9	1.35000000E+3	8.88258205E-5
2.09466500E+6	1.14000675E+3	0.00000000E+0	0.00000000E+0	7.32960000E-10	4.03135000E-9	1.32600000E+3	8.88714419E-5
2.09885800E+6	1.14498494E+3	0.00000000E+0	0.00000000E+0	7.11680000E-10	3.94075000E-9	1.19900000E+3	8.87327747E-5
2.10298900E+6	1.15002240E+3	0.00000000E+0	0.00000000E+0	6.90230000E-10	3.84735000E-9	1.21000000E+3	8.88953136E-5
2.10722000E+6	1.15496207E+3	0.00000000E+0	0.00000000E+0	6.65360000E-10	3.74498000E-9	1.15300000E+3	8.88735013E-5
2.11144000E+6	1.16001221E+3	0.00000000E+0	0.00000000E+0	6.32900000E-10	3.59903000E-9	1.18400000E+3	8.89710473E-5
2.11560600E+6	1.16501056E+3	0.00000000E+0	0.00000000E+0	5.94410000E-10	3.41600000E-9	1.10200000E+3	8.89136391E-5
2.11983000E+6	1.16999296E+3	0.00000000E+0	0.00000000E+0	5.54070000E-10	3.22115000E-9	1.05200000E+3	8.89909880E-5
2.12406300E+6	1.17500729E+3	0.00000000E+0	0.00000000E+0	5.14320000E-10	3.02442000E-9	9.88000000E+2	8.95029026E-5
2.12834400E+6	1.18001030E+3	0.00000000E+0	0.00000000E+0	4.74270000E-10	2.82881000E-9	8.93000000E+2	8.89374988E-5
2.13252700E+6	1.18499238E+3	0.00000000E+0	0.00000000E+0	4.35520000E-10	2.63687000E-9	8.44000000E+2	8.89725314E-5
2.13669100E+6	1.19003044E+3	0.00000000E+0	0.00000000E+0	3.98080000E-10	2.44808000E-9	8.14000000E+2	8.93276679E-5
2.14095100E+6	1.19498471E+3	0.00000000E+0	0.00000000E+0	3.61650000E-10	2.26326000E-9	7.61000000E+2	8.89130460E-5
2.14521600E+6	1.19998495E+3	0.00000000E+0	0.00000000E+0	3.27430000E-10	2.08210000E-9	7.23000000E+2	8.91705947E-5
