G:\BEAR_storage\User_Experiments\20220317_arneodo\file(1)_Region 6__0082.txt
Ring Energy (GeV): 2
Lifetime (hours): 0
Scan beginning: 3/21/2022	9:34:35 PM
Ring current (mA): 309.4
Source position: x (mm): 0.007 x' (mrad): 0.001 y (mm): -0.001 y' (mrad): -0.001
Scan end: 3/21/2022	10:29:26 PM
Ring current (mA): 309.32
Source position: x (mm): 0.007 x' (mrad): 0 y (mm): -0 y' (mrad): 0.001

SCAN TYPE: PHOTON ENERGY VS VAR_1 VS VAR_2

FILE INFO: FILE INFO:

SCAN PARAMETERS
waiting time (ms): 1000
Number of scans: 1
Current scan number: 1
DARK OFF 
PREDARK OFF 

SCAN PARAMETERS
Regions configuration: 
number of regions: 7
Mirror grating scan: on
Timed acquisition: off
Region 1:
Initial energy (eV): 3.000000
Final energy (eV): 4.500000
Delta energy (eV): 0.100000
Deviation angle choice: Degrees: 
Deviation angle (°): NaN
B270 window
GNIM channel
range keithley B 200 pA
range keithley C 200 pA
range keithley A 200 pA
Var_1: PsiC 0.000000
Var_2: PhiM0.000000
Bias CEM (V): 0.000000
Bias Keithley B (V): -30.000000
Name region: 
Region 2:
Initial energy (eV): 4.000000
Final energy (eV): 8.000000
Delta energy (eV): 0.100000
Deviation angle choice: Degrees: 
Deviation angle (°): NaN
SiO2 window
GNIM channel
range keithley B 200 pA
range keithley C 200 pA
range keithley A 200 pA
Var_1: PsiC 0.000000
Var_2: PhiM0.000000
Bias CEM (V): 0.000000
Bias Keithley B (V): -30.000000
Name region: 
Region 3:
Initial energy (eV): 7.000000
Final energy (eV): 12.000000
Delta energy (eV): 0.100000
Deviation angle choice: Degrees: 
Deviation angle (°): NaN
filter LiF window
GNIM channel
range keithley B 200 pA
range keithley C 200 pA
range keithley A 200 pA
Var_1: PsiC 0.000000
Var_2: PhiM0.000000
Bias CEM (V): 0.000000
Bias Keithley B (V): -30.000000
Name region: 
Region 4:
Initial energy (eV): 11.000000
Final energy (eV): 18.000000
Delta energy (eV): 0.100000
Deviation angle choice: Degrees: 
Deviation angle (°): NaN
In filter
GNIM channel
range keithley B 200 pA
range keithley C 200 pA
range keithley A 200 pA
Var_1: PsiC 0.000000
Var_2: PhiM0.000000
Bias CEM (V): 0.000000
Bias Keithley B (V): -30.000000
Name region: 
Region 5:
Initial energy (eV): 15.000000
Final energy (eV): 25.000000
Delta energy (eV): 0.100000
Deviation angle choice: Degrees: 
Deviation angle (°): NaN
Sn filter
GNIM channel
range keithley B 200 pA
range keithley C 200 pA
range keithley A 200 pA
Var_1: PsiC 0.000000
Var_2: PhiM0.000000
Bias CEM (V): 0.000000
Bias Keithley B (V): -30.000000
Name region: 
Region 6:
Initial energy (eV): 23.000000
Final energy (eV): 45.000000
Delta energy (eV): 0.100000
Deviation angle choice: Degrees: 
Deviation angle (°): NaN
Full Beam
GNIM channel
range keithley B 20 nA
range keithley C 200 pA
range keithley A 20 nA
Var_1: PsiC 0.000000
Var_2: PhiM0.000000
Bias CEM (V): 0.000000
Bias Keithley B (V): -30.000000
Name region: 
Region 7:
Initial energy (eV): 23.000000
Final energy (eV): 45.000000
Delta energy (eV): 0.100000
Deviation angle choice: Degrees: 
Deviation angle (°): NaN
Al filter
GNIM channel
range keithley B 20 nA
range keithley C 200 pA
range keithley A 20 nA
Var_1: PsiC 0.000000
Var_2: PhiM0.000000
Bias CEM (V): 0.000000
Bias Keithley B (V): -30.000000
Name region: 

BEAR MONOCHROMATOR CONFIGURATION: 
Current Grating Position:     200056.70
Current Mirror Position: 9999.9
Current Grating: GNIM
P2 phiz position:  -0.0195
Mono axis position: 73.5000
Current Photon Energy (eV): 45.000
Current Deviation Angle: 29.905
Vertical Exit Slits (um): 100.000
Exit slit y axis position: 1.3625
Horizontal Exit Slits (um):  889.156
Exit slit z axis position: 1.9229
Mitutoyo position (mm): 

Dose on sample (mJ/cm^2): NaN

ENERGY CALIBRATION:
offset grating G1200: yes
Delta 0 order G1200:  -1100.0
offset grating G1800: not
Delta 0 order G1800:  0.0
offset grating GNIM: not
Delta 0 order GNIM:  0.0
ZERO ORDER POSITIONS:
Grating G1200: Mirror position:  4938.0
Grating position: -105355.0
Grating G1800: 
Mirror position:  4938.0
Grating position: -106345.0
Grating GNIM: 
Mirror position:  10000.0
Grating position: 227300.0

Initial filter: Al filter

EXPERIMENTAL CHAMBER CONFIGURATION: 
PsiC (deg):   -0.000186
Phi Analyzer (degrees): 89.993255
Theta Manipulator (degrees): -44.000040
Theta Analyzer (degrees): -135.001468
PhiM (degrees): -0.003077
XM (mm): -4.499087
YM (mm): 22.946963
ZM (mm): (Warning: for kinetic energy scans, 
this parameter is given in the scan settings) 
-14.001363
TiltM (°): 0.000138

ELECTRON ANALYZER CONFIGURATION: 
Current Kinetik energy (eV): 35.0
Mode: DE = COST
Pass Energy (eV):  100.000
CEM: ON
Bias Front-Back CEM (V): 3499.698
Bias Back-Collector CEM (V): 100.874
Bias Retard-Front CEM: 100.104COIL VALUES
Ix (amps):2.820
Iy (amps): 6.789
Iz (amps): 37.403

POLARIZATION SELECTOR CONFIGURATION:
Psi1 (rad): -0.001665535
Psi2 (rad): 0.001417093
Z min position (mm): 46.599650
DZ position (mm): 18.599100
Zmin 0 (mm): 65.700000
DZ0 (mm): 54.000000

BEAM SELECTOR CONFIGURATION:
Zmin position (mm): NaN
DZ position (mm): NaN
Y+ position (mm): NaN
Y- position (mm): NaN

CHANNEL ELECTRON MULTIPLIER CONFIGURATION:
CEM configured: OFF
Bias CEM: 0.000000

FLUORESCENCE DETECTOR CONFIGURATION:
Not configured

LUMINESCENCE MONOCHROMATOR CONFIGURATION:
Optical fiber position (mm): 0.000000
Optical fiber Switch inside: ON
Optical fiber Switch outside: ON
Monochromator wavelength (A): 0.000000
Limit Switches: ON

I0 MONITOR PARAMETERS:
I0 detector position(mm): NaN
Lower switch: OFF
Upper switch: OFF
Valve status:unread

PRESSURE PARAMETERS:
Monitor chamber pressure (mbar): 9.041e-10
Experimental chamber pressure -ION GAUGE-(mbar): 0.000000E+0

XMCD PARAMETERS:
Xmcd OFF
Xmcd Direction -
Xmcd current (A): 0.000000

Gated scan off

Instrument 1: AMMETER KEITHLEY 6517A B
Measure type: Current
range type: set range value
range value (ampere):  200 pA
Integration time:  set NPLC value
NPLC value: 10.000
Digital filter count: 2
SAMPLE BIAS (V): -30.000
Vsource: ON
Output Voltage value: 30.000
Vsource range: 1000 V

Range Keithley B changed to 20 nA

Range Keithley B changed to 200 pA

Range Keithley B changed to 20 nA

Range Keithley B changed to 200 pA

Keithley B Bias (V) changed to: 0.000000

Range Keithley B changed to 20 nA

Keithley B Bias (V) changed to: -30.000000

Range Keithley B changed to 200 pA

Range Keithley B changed to 20 nA

Range Keithley B changed to 200 pA

Range Keithley B changed to 20 nA

Range Keithley B changed to 200 pA

Range Keithley B changed to 20 nA

Range Keithley B changed to 200 pA

Keithley B Bias (V) changed to: 0.000000

Keithley B Bias (V) changed to: -30.000000

Range Keithley B changed to 20 nA

Range Keithley B changed to 200 pA

Range Keithley B changed to 20 nA

Instrument 2: AMMETER KEITHLEY 6517A A
Measure type: Current
range type: set range value
range value (ampere):  200 pA
Integration time:  set NPLC value
NPLC value: 10.000
Digital filter count: 2
Vsource: OFF
Output Voltage value: -0.000
Vsource range: 100 V
Trigger source: bus

Range Keithley A changed to 20 nA

Range Keithley A changed to 200 nA

Range Keithley A changed to 200 pA

Range Keithley A changed to 20 nA

Range Keithley A changed to 200 pA

Range Keithley A changed to 20 nA

Range Keithley A changed to 200 nA

Range Keithley A changed to 200 pA

Range Keithley A changed to 20 nA

Range Keithley A changed to 200 pA

Range Keithley A changed to 20 nA

Range Keithley A changed to 200 nA

Range Keithley A changed to 200 pA

Range Keithley A changed to 20 nA

Range Keithley A changed to 200 pA

Range Keithley A changed to 20 nA

Range Keithley A changed to 200 pA

Range Keithley A changed to 20 nA

Range Keithley A changed to 200 pA

Range Keithley A changed to 20 nA

Instrument 3: COUNTER ORTEC 996Integration time (sec): 1.000


Range Keithley C changed to 200 nA


Range Keithley C changed to 2 uA


Range Keithley C changed to 200 nA


Range Keithley C changed to 2 uA


Range Keithley C changed to 200 pA


________________________________________________________________________________

RelativeTime (msec)	Photon Energy	Var_1	Var_2	INSTR_1_Sample with Bias _(ampere ) 	INSTR_2_Monitor IM_(ampere)  	INSTR_3_Ortec 996 counts_(counts)	I_BPM_sum (Amps)	
________________________________________________________________________________

2.04975800E+6	2.30003471E+1	0.00000000E+0	0.00000000E+0	1.17106000E-9	2.80790000E-10	2.24900000E+3	8.96913039E-5
2.05633600E+6	2.30996775E+1	0.00000000E+0	0.00000000E+0	1.15292000E-9	2.79840000E-10	2.09100000E+3	8.97202211E-5
2.06199300E+6	2.31999136E+1	0.00000000E+0	0.00000000E+0	1.14535000E-9	2.78530000E-10	2.04900000E+3	8.95669567E-5
2.06766200E+6	2.32999586E+1	0.00000000E+0	0.00000000E+0	1.14001000E-9	2.77230000E-10	2.01700000E+3	8.96167504E-5
2.07334800E+6	2.33999307E+1	0.00000000E+0	0.00000000E+0	1.13330000E-9	2.74910000E-10	1.91900000E+3	8.94677388E-5
2.07904400E+6	2.35000422E+1	0.00000000E+0	0.00000000E+0	1.12213000E-9	2.72670000E-10	1.81900000E+3	8.94379842E-5
2.08482600E+6	2.36000128E+1	0.00000000E+0	0.00000000E+0	1.11468000E-9	2.70770000E-10	1.84600000E+3	9.00475431E-5
2.09063900E+6	2.37000115E+1	0.00000000E+0	0.00000000E+0	1.10515000E-9	2.68140000E-10	1.80700000E+3	9.00201994E-5
2.09642800E+6	2.37999817E+1	0.00000000E+0	0.00000000E+0	1.08954000E-9	2.64310000E-10	1.73400000E+3	9.02786363E-5
2.10220400E+6	2.39000987E+1	0.00000000E+0	0.00000000E+0	1.07568000E-9	2.60840000E-10	1.66300000E+3	8.98480910E-5
2.10788600E+6	2.39998849E+1	0.00000000E+0	0.00000000E+0	1.05848000E-9	2.56470000E-10	1.72500000E+3	8.98501473E-5
2.11347600E+6	2.40998908E+1	0.00000000E+0	0.00000000E+0	1.04158000E-9	2.52150000E-10	1.58000000E+3	9.00107282E-5
2.11905700E+6	2.42001594E+1	0.00000000E+0	0.00000000E+0	1.02413000E-9	2.47770000E-10	1.62100000E+3	8.99022865E-5
2.12464100E+6	2.42998183E+1	0.00000000E+0	0.00000000E+0	1.00372000E-9	2.43060000E-10	1.57400000E+3	8.97965687E-5
2.13023800E+6	2.44000094E+1	0.00000000E+0	0.00000000E+0	9.84520000E-10	2.38460000E-10	1.53100000E+3	9.02508039E-5
2.13581600E+6	2.45000492E+1	0.00000000E+0	0.00000000E+0	9.67330000E-10	2.33570000E-10	1.52600000E+3	8.97222328E-5
2.14141900E+6	2.46000721E+1	0.00000000E+0	0.00000000E+0	9.48710000E-10	2.29090000E-10	1.48500000E+3	8.97103238E-5
2.14707700E+6	2.47000176E+1	0.00000000E+0	0.00000000E+0	9.29590000E-10	2.24660000E-10	1.41600000E+3	9.01668537E-5
2.15269000E+6	2.48000749E+1	0.00000000E+0	0.00000000E+0	9.13390000E-10	2.20620000E-10	1.41300000E+3	9.01532102E-5
2.15829400E+6	2.48999329E+1	0.00000000E+0	0.00000000E+0	8.96790000E-10	2.16540000E-10	1.45800000E+3	8.97464680E-5
2.16390800E+6	2.49999855E+1	0.00000000E+0	0.00000000E+0	8.82280000E-10	2.12880000E-10	1.39800000E+3	8.95555096E-5
2.17023300E+6	2.51001246E+1	0.00000000E+0	0.00000000E+0	8.68460000E-10	2.09750000E-10	1.37300000E+3	8.97024202E-5
2.17590800E+6	2.52000313E+1	0.00000000E+0	0.00000000E+0	8.55120000E-10	2.06590000E-10	1.44300000E+3	8.99793196E-5
2.18153200E+6	2.52999520E+1	0.00000000E+0	0.00000000E+0	8.45040000E-10	2.03580000E-10	1.45300000E+3	8.95879733E-5
2.18720500E+6	2.53999302E+1	0.00000000E+0	0.00000000E+0	8.33230000E-10	2.01030000E-10	1.37500000E+3	8.98488003E-5
2.19285200E+6	2.54999046E+1	0.00000000E+0	0.00000000E+0	8.23650000E-10	1.98650000E-10	1.34900000E+3	8.99539727E-5
2.19842800E+6	2.56001872E+1	0.00000000E+0	0.00000000E+0	8.13850000E-10	1.96630000E-10	1.36900000E+3	8.97332000E-5
2.20402500E+6	2.57000202E+1	0.00000000E+0	0.00000000E+0	8.05260000E-10	1.94660000E-10	1.38600000E+3	8.97677380E-5
2.20963000E+6	2.57999823E+1	0.00000000E+0	0.00000000E+0	7.96770000E-10	1.92710000E-10	1.30000000E+3	8.99578261E-5
2.21513700E+6	2.58999576E+1	0.00000000E+0	0.00000000E+0	7.90110000E-10	1.91160000E-10	1.34500000E+3	8.99869072E-5
2.22067800E+6	2.59999926E+1	0.00000000E+0	0.00000000E+0	7.81630000E-10	1.89540000E-10	1.40600000E+3	8.96340566E-5
2.22620000E+6	2.60999684E+1	0.00000000E+0	0.00000000E+0	7.74860000E-10	1.87920000E-10	1.38900000E+3	8.97442329E-5
2.23180200E+6	2.61999307E+1	0.00000000E+0	0.00000000E+0	7.69510000E-10	1.86380000E-10	1.40300000E+3	8.98405182E-5
2.23736200E+6	2.63001530E+1	0.00000000E+0	0.00000000E+0	7.61870000E-10	1.84960000E-10	1.29200000E+3	9.00725204E-5
2.24303100E+6	2.63999490E+1	0.00000000E+0	0.00000000E+0	7.56500000E-10	1.83460000E-10	1.47800000E+3	8.98816872E-5
2.24871400E+6	2.64998166E+1	0.00000000E+0	0.00000000E+0	7.49470000E-10	1.82030000E-10	1.37300000E+3	8.99505365E-5
2.25430000E+6	2.65999802E+1	0.00000000E+0	0.00000000E+0	7.43340000E-10	1.80630000E-10	1.41900000E+3	8.98184675E-5
2.25992500E+6	2.67000882E+1	0.00000000E+0	0.00000000E+0	7.35670000E-10	1.79230000E-10	1.44600000E+3	8.93033492E-5
2.26563300E+6	2.68000136E+1	0.00000000E+0	0.00000000E+0	7.29700000E-10	1.77690000E-10	1.36500000E+3	8.97591847E-5
2.27136100E+6	2.68999801E+1	0.00000000E+0	0.00000000E+0	7.21820000E-10	1.76200000E-10	1.42800000E+3	8.97448259E-5
2.27701600E+6	2.69998613E+1	0.00000000E+0	0.00000000E+0	7.15440000E-10	1.74400000E-10	1.35400000E+3	8.96986740E-5
2.28269100E+6	2.71000668E+1	0.00000000E+0	0.00000000E+0	7.06980000E-10	1.72680000E-10	1.36300000E+3	8.97357213E-5
2.28831600E+6	2.71999912E+1	0.00000000E+0	0.00000000E+0	6.99150000E-10	1.71020000E-10	1.42500000E+3	8.95204263E-5
2.29392800E+6	2.72999244E+1	0.00000000E+0	0.00000000E+0	6.90740000E-10	1.69070000E-10	1.32700000E+3	8.95660895E-5
2.29958100E+6	2.74000425E+1	0.00000000E+0	0.00000000E+0	6.81540000E-10	1.67430000E-10	1.32000000E+3	8.93792676E-5
2.30516800E+6	2.74999088E+1	0.00000000E+0	0.00000000E+0	6.76190000E-10	1.66000000E-10	1.38600000E+3	8.97161472E-5
2.31075900E+6	2.76000079E+1	0.00000000E+0	0.00000000E+0	6.69850000E-10	1.64600000E-10	1.29500000E+3	8.98364234E-5
2.31629700E+6	2.76999605E+1	0.00000000E+0	0.00000000E+0	6.61420000E-10	1.63040000E-10	1.36300000E+3	8.99934936E-5
2.32186900E+6	2.78000082E+1	0.00000000E+0	0.00000000E+0	6.55530000E-10	1.61670000E-10	1.31500000E+3	8.99052906E-5
2.32742400E+6	2.79001451E+1	0.00000000E+0	0.00000000E+0	6.50600000E-10	1.60580000E-10	1.28800000E+3	8.98672002E-5
2.33302400E+6	2.79997889E+1	0.00000000E+0	0.00000000E+0	6.44910000E-10	1.59710000E-10	1.35300000E+3	8.98680079E-5
2.33861800E+6	2.81000179E+1	0.00000000E+0	0.00000000E+0	6.43740000E-10	1.59240000E-10	1.28200000E+3	8.98964453E-5
2.34416300E+6	2.81999923E+1	0.00000000E+0	0.00000000E+0	6.39660000E-10	1.58990000E-10	1.28300000E+3	8.99799842E-5
2.34975200E+6	2.83000261E+1	0.00000000E+0	0.00000000E+0	6.39940000E-10	1.59150000E-10	1.35400000E+3	9.00077003E-5
2.35535900E+6	2.83999155E+1	0.00000000E+0	0.00000000E+0	6.42700000E-10	1.59680000E-10	1.39400000E+3	8.97974747E-5
2.36093300E+6	2.84999151E+1	0.00000000E+0	0.00000000E+0	6.44900000E-10	1.60690000E-10	1.34000000E+3	8.98805606E-5
2.36640500E+6	2.85998193E+1	0.00000000E+0	0.00000000E+0	6.50690000E-10	1.62220000E-10	1.34400000E+3	8.98957837E-5
2.37205500E+6	2.87002246E+1	0.00000000E+0	0.00000000E+0	6.58260000E-10	1.64040000E-10	1.37400000E+3	8.99244833E-5
2.37761500E+6	2.88001172E+1	0.00000000E+0	0.00000000E+0	6.65830000E-10	1.66460000E-10	1.40500000E+3	9.04235203E-5
2.38324100E+6	2.88998205E+1	0.00000000E+0	0.00000000E+0	6.77320000E-10	1.69150000E-10	1.41000000E+3	8.95463842E-5
2.38871400E+6	2.89997354E+1	0.00000000E+0	0.00000000E+0	6.89890000E-10	1.72260000E-10	1.43600000E+3	8.95510214E-5
2.39429500E+6	2.91004128E+1	0.00000000E+0	0.00000000E+0	7.02530000E-10	1.75860000E-10	1.45700000E+3	8.97393334E-5
2.39990200E+6	2.91999801E+1	0.00000000E+0	0.00000000E+0	7.19440000E-10	1.79690000E-10	1.50100000E+3	8.98742664E-5
2.40545000E+6	2.92998803E+1	0.00000000E+0	0.00000000E+0	7.36330000E-10	1.83870000E-10	1.60700000E+3	8.96792817E-5
2.41090500E+6	2.93997602E+1	0.00000000E+0	0.00000000E+0	7.52250000E-10	1.88250000E-10	1.59000000E+3	8.99818289E-5
2.41648500E+6	2.95002522E+1	0.00000000E+0	0.00000000E+0	7.70230000E-10	1.92770000E-10	1.66200000E+3	8.98578185E-5
2.42192900E+6	2.95996437E+1	0.00000000E+0	0.00000000E+0	7.87460000E-10	1.97150000E-10	1.65000000E+3	8.97712010E-5
2.42731700E+6	2.96998514E+1	0.00000000E+0	0.00000000E+0	8.06280000E-10	2.01760000E-10	1.72000000E+3	8.97555190E-5
2.43273100E+6	2.98001593E+1	0.00000000E+0	0.00000000E+0	8.24750000E-10	2.06240000E-10	1.74900000E+3	8.98295510E-5
2.43817000E+6	2.98999052E+1	0.00000000E+0	0.00000000E+0	8.40820000E-10	2.10400000E-10	1.79400000E+3	8.97488343E-5
2.44357400E+6	3.00001739E+1	0.00000000E+0	0.00000000E+0	8.57660000E-10	2.14450000E-10	1.91700000E+3	8.97687244E-5
2.44973500E+6	3.00998588E+1	0.00000000E+0	0.00000000E+0	8.71340000E-10	2.18040000E-10	1.90000000E+3	8.95133244E-5
2.45515800E+6	3.02001339E+1	0.00000000E+0	0.00000000E+0	8.84900000E-10	2.21470000E-10	1.90600000E+3	8.97605884E-5
2.46055700E+6	3.02998040E+1	0.00000000E+0	0.00000000E+0	8.96320000E-10	2.24500000E-10	1.94100000E+3	8.95795810E-5
2.46595000E+6	3.03998320E+1	0.00000000E+0	0.00000000E+0	9.09190000E-10	2.26970000E-10	1.95700000E+3	8.95823705E-5
2.47140200E+6	3.05002947E+1	0.00000000E+0	0.00000000E+0	9.12990000E-10	2.28910000E-10	2.06100000E+3	8.94761401E-5
2.47682900E+6	3.05998932E+1	0.00000000E+0	0.00000000E+0	9.20260000E-10	2.30430000E-10	1.96500000E+3	8.93720137E-5
2.48229100E+6	3.07001444E+1	0.00000000E+0	0.00000000E+0	9.22620000E-10	2.31490000E-10	2.04100000E+3	8.95835387E-5
2.48770900E+6	3.08000469E+1	0.00000000E+0	0.00000000E+0	9.23200000E-10	2.31860000E-10	2.07200000E+3	8.96915841E-5
2.49317500E+6	3.08997434E+1	0.00000000E+0	0.00000000E+0	9.22020000E-10	2.31790000E-10	2.00100000E+3	8.95095664E-5
2.49862300E+6	3.10000875E+1	0.00000000E+0	0.00000000E+0	9.18300000E-10	2.31000000E-10	2.02000000E+3	8.93646675E-5
2.50410000E+6	3.10999789E+1	0.00000000E+0	0.00000000E+0	9.11600000E-10	2.29720000E-10	2.02500000E+3	8.97604871E-5
2.50966800E+6	3.12001185E+1	0.00000000E+0	0.00000000E+0	9.04470000E-10	2.28060000E-10	1.95000000E+3	8.96427142E-5
2.51510900E+6	3.12997042E+1	0.00000000E+0	0.00000000E+0	8.93570000E-10	2.25590000E-10	1.94200000E+3	8.94790667E-5
2.52053200E+6	3.14004110E+1	0.00000000E+0	0.00000000E+0	8.79850000E-10	2.22710000E-10	1.92000000E+3	8.98045558E-5
2.52595600E+6	3.14994977E+1	0.00000000E+0	0.00000000E+0	8.68420000E-10	2.20200000E-10	1.85800000E+3	9.00251168E-5
2.53140800E+6	3.16002724E+1	0.00000000E+0	0.00000000E+0	8.52980000E-10	2.16650000E-10	1.95400000E+3	9.02460683E-5
2.53687500E+6	3.16998875E+1	0.00000000E+0	0.00000000E+0	8.35710000E-10	2.12480000E-10	1.86600000E+3	9.00295574E-5
2.54231100E+6	3.18001326E+1	0.00000000E+0	0.00000000E+0	8.16130000E-10	2.07970000E-10	1.81300000E+3	8.98655850E-5
2.54774300E+6	3.18999327E+1	0.00000000E+0	0.00000000E+0	7.97030000E-10	2.03000000E-10	1.69700000E+3	8.99825799E-5
2.55317700E+6	3.20000266E+1	0.00000000E+0	0.00000000E+0	7.76120000E-10	1.97990000E-10	1.75900000E+3	9.02601499E-5
2.55865100E+6	3.20998243E+1	0.00000000E+0	0.00000000E+0	7.54080000E-10	1.92730000E-10	1.64300000E+3	8.96349597E-5
2.56407300E+6	3.21997381E+1	0.00000000E+0	0.00000000E+0	7.31530000E-10	1.87260000E-10	1.57300000E+3	8.97506374E-5
2.56951900E+6	3.23000202E+1	0.00000000E+0	0.00000000E+0	7.08790000E-10	1.81940000E-10	1.57200000E+3	9.00713611E-5
2.57497400E+6	3.24002425E+1	0.00000000E+0	0.00000000E+0	6.87010000E-10	1.76160000E-10	1.55700000E+3	9.01534367E-5
2.58040900E+6	3.24998804E+1	0.00000000E+0	0.00000000E+0	6.62980000E-10	1.70750000E-10	1.51400000E+3	8.98469525E-5
2.58583200E+6	3.25997856E+1	0.00000000E+0	0.00000000E+0	6.40230000E-10	1.65120000E-10	1.44700000E+3	9.01292908E-5
2.59131100E+6	3.26999575E+1	0.00000000E+0	0.00000000E+0	6.17870000E-10	1.59620000E-10	1.36100000E+3	8.99742591E-5
2.59671100E+6	3.28000435E+1	0.00000000E+0	0.00000000E+0	5.96070000E-10	1.54200000E-10	1.33200000E+3	8.97207456E-5
2.60216300E+6	3.29002135E+1	0.00000000E+0	0.00000000E+0	5.75600000E-10	1.49140000E-10	1.26700000E+3	8.97267687E-5
2.60760400E+6	3.29999293E+1	0.00000000E+0	0.00000000E+0	5.54270000E-10	1.44140000E-10	1.24000000E+3	8.98063081E-5
2.61304500E+6	3.30999828E+1	0.00000000E+0	0.00000000E+0	5.33690000E-10	1.39230000E-10	1.20100000E+3	8.98802715E-5
2.61846800E+6	3.31999243E+1	0.00000000E+0	0.00000000E+0	5.14560000E-10	1.34470000E-10	1.15300000E+3	8.95142304E-5
2.62393000E+6	3.33001993E+1	0.00000000E+0	0.00000000E+0	4.94630000E-10	1.29930000E-10	1.07400000E+3	8.96782893E-5
2.62937600E+6	3.33998057E+1	0.00000000E+0	0.00000000E+0	4.76650000E-10	1.25510000E-10	1.09200000E+3	8.98436683E-5
2.63478300E+6	3.34999181E+1	0.00000000E+0	0.00000000E+0	4.59870000E-10	1.21280000E-10	1.06200000E+3	8.98482460E-5
2.64022800E+6	3.35998944E+1	0.00000000E+0	0.00000000E+0	4.42830000E-10	1.17460000E-10	9.61000000E+2	8.96441656E-5
2.64567000E+6	3.37001908E+1	0.00000000E+0	0.00000000E+0	4.26620000E-10	1.13450000E-10	9.87000000E+2	8.99494040E-5
2.65108800E+6	3.37997808E+1	0.00000000E+0	0.00000000E+0	4.10890000E-10	1.09900000E-10	9.44000000E+2	8.98644465E-5
2.65653900E+6	3.39000552E+1	0.00000000E+0	0.00000000E+0	3.95760000E-10	1.06330000E-10	8.92000000E+2	8.95677971E-5
2.66200800E+6	3.39999816E+1	0.00000000E+0	0.00000000E+0	3.79940000E-10	1.02890000E-10	9.01000000E+2	8.96219450E-5
2.66750600E+6	3.40999288E+1	0.00000000E+0	0.00000000E+0	3.67260000E-10	9.95700000E-11	8.66000000E+2	8.98000943E-5
2.67314000E+6	3.42000830E+1	0.00000000E+0	0.00000000E+0	3.53210000E-10	9.63600000E-11	7.86000000E+2	8.97887873E-5
2.67869700E+6	3.42999620E+1	0.00000000E+0	0.00000000E+0	3.41110000E-10	9.34200000E-11	7.72000000E+2	8.98328948E-5
2.68424600E+6	3.44000394E+1	0.00000000E+0	0.00000000E+0	3.29200000E-10	9.05700000E-11	7.77000000E+2	8.99878758E-5
2.68976400E+6	3.45000216E+1	0.00000000E+0	0.00000000E+0	3.17600000E-10	8.77500000E-11	8.07000000E+2	8.93628376E-5
2.69531200E+6	3.45996085E+1	0.00000000E+0	0.00000000E+0	3.05920000E-10	8.49800000E-11	7.82000000E+2	8.96382886E-5
2.70087100E+6	3.47000672E+1	0.00000000E+0	0.00000000E+0	2.95570000E-10	8.24100000E-11	6.99000000E+2	8.96004277E-5
2.70642000E+6	3.48001213E+1	0.00000000E+0	0.00000000E+0	2.85080000E-10	7.99800000E-11	6.66000000E+2	8.92307239E-5
2.71191300E+6	3.48998583E+1	0.00000000E+0	0.00000000E+0	2.76050000E-10	7.76400000E-11	6.85000000E+2	8.96491187E-5
2.71748400E+6	3.49999685E+1	0.00000000E+0	0.00000000E+0	2.66040000E-10	7.54300000E-11	5.90000000E+2	8.93569248E-5
2.72370900E+6	3.50998493E+1	0.00000000E+0	0.00000000E+0	2.56990000E-10	7.31800000E-11	5.82000000E+2	8.95421284E-5
2.72927800E+6	3.52000992E+1	0.00000000E+0	0.00000000E+0	2.48580000E-10	7.10800000E-11	5.99000000E+2	8.98909825E-5
2.73484200E+6	3.52999053E+1	0.00000000E+0	0.00000000E+0	2.40500000E-10	6.91300000E-11	5.65000000E+2	8.96869945E-5
2.74050300E+6	3.54000741E+1	0.00000000E+0	0.00000000E+0	2.32690000E-10	6.71600000E-11	5.90000000E+2	8.96368283E-5
2.74606800E+6	3.55000922E+1	0.00000000E+0	0.00000000E+0	2.25630000E-10	6.53700000E-11	5.62000000E+2	8.91607838E-5
2.75170700E+6	3.55997450E+1	0.00000000E+0	0.00000000E+0	2.18120000E-10	6.34900000E-11	4.99000000E+2	8.93714415E-5
2.75732700E+6	3.56999589E+1	0.00000000E+0	0.00000000E+0	2.11540000E-10	6.18600000E-11	5.17000000E+2	8.93868374E-5
2.76289800E+6	3.58001102E+1	0.00000000E+0	0.00000000E+0	2.05570000E-10	6.02800000E-11	5.00000000E+2	8.95561802E-5
2.76849900E+6	3.58996665E+1	0.00000000E+0	0.00000000E+0	1.99340000E-10	5.89100000E-11	4.56000000E+2	8.99194646E-5
2.77405000E+6	3.60000959E+1	0.00000000E+0	0.00000000E+0	1.94210000E-10	5.73400000E-11	4.43000000E+2	8.99462658E-5
2.77963600E+6	3.60998108E+1	0.00000000E+0	0.00000000E+0	1.88730000E-10	5.59700000E-11	4.38000000E+2	8.98276317E-5
2.78517500E+6	3.61999725E+1	0.00000000E+0	0.00000000E+0	1.83160000E-10	5.46500000E-11	4.66000000E+2	8.99859148E-5
2.79078400E+6	3.63001533E+1	0.00000000E+0	0.00000000E+0	1.78330000E-10	5.33800000E-11	4.37000000E+2	8.98815530E-5
2.79640700E+6	3.63998074E+1	0.00000000E+0	0.00000000E+0	1.73850000E-10	5.21300000E-11	4.10000000E+2	8.97348600E-5
2.80199100E+6	3.65001190E+1	0.00000000E+0	0.00000000E+0	1.68570000E-10	5.08600000E-11	4.17000000E+2	8.96237540E-5
2.80752800E+6	3.65998904E+1	0.00000000E+0	0.00000000E+0	1.64020000E-10	4.98000000E-11	4.30000000E+2	8.94255387E-5
2.81306800E+6	3.66999886E+1	0.00000000E+0	0.00000000E+0	1.60250000E-10	4.86900000E-11	4.08000000E+2	8.96834302E-5
2.81864100E+6	3.67999720E+1	0.00000000E+0	0.00000000E+0	1.55840000E-10	4.76200000E-11	3.84000000E+2	9.00932926E-5
2.82419200E+6	3.69000565E+1	0.00000000E+0	0.00000000E+0	1.52200000E-10	4.67200000E-11	3.87000000E+2	8.93590646E-5
2.82972500E+6	3.69997920E+1	0.00000000E+0	0.00000000E+0	1.48410000E-10	4.56500000E-11	3.52000000E+2	8.96531838E-5
2.83512600E+6	3.70993933E+1	0.00000000E+0	0.00000000E+0	1.44980000E-10	4.47100000E-11	3.42000000E+2	8.95005422E-5
2.84070200E+6	3.72004369E+1	0.00000000E+0	0.00000000E+0	1.41340000E-10	4.37600000E-11	3.26000000E+2	8.96209675E-5
2.84624000E+6	3.73000996E+1	0.00000000E+0	0.00000000E+0	1.37840000E-10	4.28800000E-11	3.48000000E+2	8.94198733E-5
2.85169900E+6	3.73994977E+1	0.00000000E+0	0.00000000E+0	1.34750000E-10	4.20300000E-11	3.50000000E+2	8.95892399E-5
2.85715400E+6	3.75003463E+1	0.00000000E+0	0.00000000E+0	1.31420000E-10	4.11100000E-11	3.21000000E+2	9.00884140E-5
2.86268900E+6	3.75998917E+1	0.00000000E+0	0.00000000E+0	1.28160000E-10	4.03400000E-11	3.19000000E+2	8.96912056E-5
2.86821200E+6	3.76998510E+1	0.00000000E+0	0.00000000E+0	1.25250000E-10	3.95400000E-11	3.24000000E+2	8.95196574E-5
2.87386200E+6	3.77998761E+1	0.00000000E+0	0.00000000E+0	1.21940000E-10	3.86500000E-11	2.86000000E+2	8.93612730E-5
2.87943100E+6	3.78999639E+1	0.00000000E+0	0.00000000E+0	1.19210000E-10	3.78000000E-11	2.74000000E+2	8.97370594E-5
2.88482400E+6	3.79996392E+1	0.00000000E+0	0.00000000E+0	1.16430000E-10	3.70400000E-11	2.54000000E+2	8.97006201E-5
2.89043500E+6	3.81003146E+1	0.00000000E+0	0.00000000E+0	1.13580000E-10	3.63400000E-11	2.29000000E+2	8.94101697E-5
2.89600600E+6	3.82002133E+1	0.00000000E+0	0.00000000E+0	1.10790000E-10	3.54800000E-11	2.70000000E+2	8.95188528E-5
2.90142400E+6	3.82997981E+1	0.00000000E+0	0.00000000E+0	1.08410000E-10	3.48400000E-11	2.26000000E+2	8.98061204E-5
2.90683300E+6	3.83997830E+1	0.00000000E+0	0.00000000E+0	1.05560000E-10	3.40500000E-11	2.44000000E+2	8.95037132E-5
2.91224500E+6	3.84999280E+1	0.00000000E+0	0.00000000E+0	1.03140000E-10	3.33400000E-11	2.51000000E+2	8.97421616E-5
2.91765700E+6	3.86002314E+1	0.00000000E+0	0.00000000E+0	1.00530000E-10	3.25900000E-11	2.34000000E+2	8.94411909E-5
2.92321800E+6	3.87000798E+1	0.00000000E+0	0.00000000E+0	9.81400000E-11	3.19700000E-11	2.30000000E+2	8.95431446E-5
2.92867000E+6	3.87994619E+1	0.00000000E+0	0.00000000E+0	9.58400000E-11	3.11600000E-11	2.10000000E+2	8.96982926E-5
2.93408900E+6	3.88996032E+1	0.00000000E+0	0.00000000E+0	9.30400000E-11	3.04700000E-11	2.27000000E+2	8.97537487E-5
2.93949300E+6	3.90002626E+1	0.00000000E+0	0.00000000E+0	9.08500000E-11	2.98300000E-11	2.03000000E+2	8.96757173E-5
2.94488100E+6	3.90995705E+1	0.00000000E+0	0.00000000E+0	8.89300000E-11	2.90900000E-11	2.02000000E+2	8.93994915E-5
2.95037700E+6	3.92005155E+1	0.00000000E+0	0.00000000E+0	8.64200000E-11	2.84800000E-11	1.88000000E+2	8.98089039E-5
2.95577600E+6	3.92997113E+1	0.00000000E+0	0.00000000E+0	8.45400000E-11	2.79300000E-11	1.89000000E+2	8.97137898E-5
2.96121100E+6	3.94000446E+1	0.00000000E+0	0.00000000E+0	8.24500000E-11	2.73000000E-11	2.05000000E+2	8.93882918E-5
2.96669200E+6	3.95001266E+1	0.00000000E+0	0.00000000E+0	8.01600000E-11	2.66700000E-11	1.67000000E+2	8.93112885E-5
2.97214200E+6	3.96002057E+1	0.00000000E+0	0.00000000E+0	7.82700000E-11	2.60800000E-11	1.71000000E+2	8.96991390E-5
2.97763100E+6	3.96998918E+1	0.00000000E+0	0.00000000E+0	7.63000000E-11	2.54500000E-11	1.85000000E+2	8.95835983E-5
2.98314300E+6	3.97996927E+1	0.00000000E+0	0.00000000E+0	7.43200000E-11	2.49400000E-11	1.97000000E+2	9.00025415E-5
2.98857300E+6	3.99002568E+1	0.00000000E+0	0.00000000E+0	7.26600000E-11	2.42700000E-11	1.60000000E+2	8.95341473E-5
2.99397300E+6	4.00001537E+1	0.00000000E+0	0.00000000E+0	7.08200000E-11	2.37400000E-11	1.55000000E+2	8.91228305E-5
3.00023200E+6	4.01001579E+1	0.00000000E+0	0.00000000E+0	6.91700000E-11	2.34200000E-11	1.62000000E+2	9.02961809E-5
3.00562800E+6	4.02001351E+1	0.00000000E+0	0.00000000E+0	6.75800000E-11	2.28700000E-11	1.87000000E+2	8.97464829E-5
3.01116500E+6	4.02996832E+1	0.00000000E+0	0.00000000E+0	6.56800000E-11	2.22500000E-11	1.58000000E+2	9.00364059E-5
3.01665200E+6	4.03997255E+1	0.00000000E+0	0.00000000E+0	6.40000000E-11	2.17800000E-11	1.33000000E+2	8.99948794E-5
3.02212300E+6	4.05002658E+1	0.00000000E+0	0.00000000E+0	6.23200000E-11	2.12100000E-11	1.40000000E+2	8.98653585E-5
3.02759200E+6	4.05996914E+1	0.00000000E+0	0.00000000E+0	6.07900000E-11	2.07700000E-11	1.25000000E+2	8.95631867E-5
3.03312900E+6	4.07005539E+1	0.00000000E+0	0.00000000E+0	5.94400000E-11	2.03700000E-11	1.46000000E+2	9.01392776E-5
3.03872300E+6	4.07994703E+1	0.00000000E+0	0.00000000E+0	5.79000000E-11	1.98800000E-11	1.23000000E+2	8.98035782E-5
3.04431000E+6	4.09000988E+1	0.00000000E+0	0.00000000E+0	5.63200000E-11	1.93500000E-11	1.28000000E+2	8.97588569E-5
3.04978200E+6	4.10001260E+1	0.00000000E+0	0.00000000E+0	5.49500000E-11	1.88700000E-11	1.28000000E+2	8.97156793E-5
3.05519600E+6	4.10998156E+1	0.00000000E+0	0.00000000E+0	5.36800000E-11	1.84900000E-11	1.14000000E+2	8.99571019E-5
3.06068500E+6	4.12001298E+1	0.00000000E+0	0.00000000E+0	5.21600000E-11	1.80000000E-11	1.21000000E+2	9.00281537E-5
3.06613200E+6	4.12996804E+1	0.00000000E+0	0.00000000E+0	5.09200000E-11	1.77400000E-11	1.10000000E+2	8.95285564E-5
3.07166300E+6	4.13999935E+1	0.00000000E+0	0.00000000E+0	4.98200000E-11	1.73600000E-11	9.60000000E+1	8.97253441E-5
3.07714500E+6	4.14999506E+1	0.00000000E+0	0.00000000E+0	4.86900000E-11	1.69200000E-11	1.22000000E+2	8.97377389E-5
3.08265700E+6	4.16002501E+1	0.00000000E+0	0.00000000E+0	4.75200000E-11	1.66100000E-11	1.02000000E+2	8.99232912E-5
3.08816600E+6	4.17001831E+1	0.00000000E+0	0.00000000E+0	4.65900000E-11	1.63100000E-11	1.11000000E+2	8.96659720E-5
3.09370100E+6	4.17994553E+1	0.00000000E+0	0.00000000E+0	4.54100000E-11	1.58500000E-11	8.30000000E+1	8.97332954E-5
3.09920300E+6	4.19000619E+1	0.00000000E+0	0.00000000E+0	4.43600000E-11	1.56300000E-11	9.20000000E+1	8.94141602E-5
3.10471500E+6	4.19997125E+1	0.00000000E+0	0.00000000E+0	4.34600000E-11	1.53300000E-11	9.30000000E+1	8.95267265E-5
3.11021600E+6	4.20999831E+1	0.00000000E+0	0.00000000E+0	4.25000000E-11	1.51200000E-11	9.50000000E+1	8.99616855E-5
3.11565700E+6	4.21994240E+1	0.00000000E+0	0.00000000E+0	4.16100000E-11	1.47200000E-11	8.50000000E+1	8.97127974E-5
3.12113500E+6	4.23005054E+1	0.00000000E+0	0.00000000E+0	4.06400000E-11	1.44500000E-11	8.30000000E+1	8.97483247E-5
3.12663100E+6	4.24000155E+1	0.00000000E+0	0.00000000E+0	4.00300000E-11	1.43100000E-11	8.20000000E+1	8.98187178E-5
3.13212900E+6	4.25002901E+1	0.00000000E+0	0.00000000E+0	3.91000000E-11	1.40000000E-11	9.10000000E+1	8.94315141E-5
3.13761200E+6	4.25997055E+1	0.00000000E+0	0.00000000E+0	3.84300000E-11	1.38100000E-11	9.80000000E+1	8.87535857E-5
3.14310000E+6	4.27000340E+1	0.00000000E+0	0.00000000E+0	3.77100000E-11	1.36200000E-11	8.50000000E+1	8.99296898E-5
3.14864900E+6	4.28000878E+1	0.00000000E+0	0.00000000E+0	3.68300000E-11	1.32100000E-11	9.70000000E+1	8.96407204E-5
3.15412800E+6	4.28998597E+1	0.00000000E+0	0.00000000E+0	3.64800000E-11	1.31300000E-11	8.10000000E+1	8.97244352E-5
3.15966600E+6	4.29999467E+1	0.00000000E+0	0.00000000E+0	3.58000000E-11	1.29400000E-11	8.00000000E+1	8.94242632E-5
3.16513500E+6	4.31001983E+1	0.00000000E+0	0.00000000E+0	3.50600000E-11	1.26800000E-11	7.60000000E+1	8.96151888E-5
3.17063600E+6	4.32000034E+1	0.00000000E+0	0.00000000E+0	3.42200000E-11	1.24500000E-11	7.70000000E+1	8.94447612E-5
3.17610300E+6	4.33002718E+1	0.00000000E+0	0.00000000E+0	3.38100000E-11	1.22600000E-11	8.30000000E+1	8.94327270E-5
3.18150900E+6	4.33997755E+1	0.00000000E+0	0.00000000E+0	3.31400000E-11	1.18600000E-11	7.70000000E+1	8.95021724E-5
3.18682400E+6	4.35000467E+1	0.00000000E+0	0.00000000E+0	3.26100000E-11	1.19000000E-11	6.20000000E+1	8.94030976E-5
3.19219200E+6	4.36000057E+1	0.00000000E+0	0.00000000E+0	3.19500000E-11	1.15800000E-11	9.10000000E+1	8.93710660E-5
3.19749700E+6	4.36998010E+1	0.00000000E+0	0.00000000E+0	3.14100000E-11	1.14400000E-11	5.40000000E+1	8.95716595E-5
3.20279900E+6	4.37997406E+1	0.00000000E+0	0.00000000E+0	3.07300000E-11	1.11900000E-11	7.40000000E+1	8.93635141E-5
3.20812300E+6	4.38998235E+1	0.00000000E+0	0.00000000E+0	3.01100000E-11	1.10400000E-11	7.40000000E+1	8.95612108E-5
3.21342500E+6	4.40002065E+1	0.00000000E+0	0.00000000E+0	2.95100000E-11	1.08600000E-11	5.80000000E+1	8.92680513E-5
3.21881800E+6	4.40996195E+1	0.00000000E+0	0.00000000E+0	2.90000000E-11	1.07000000E-11	6.00000000E+1	8.93602508E-5
3.22413700E+6	4.42001212E+1	0.00000000E+0	0.00000000E+0	2.82500000E-11	1.03600000E-11	6.80000000E+1	8.95333188E-5
3.22951600E+6	4.43001199E+1	0.00000000E+0	0.00000000E+0	2.77500000E-11	1.01900000E-11	6.50000000E+1	8.96607387E-5
3.23485900E+6	4.43997667E+1	0.00000000E+0	0.00000000E+0	2.72700000E-11	1.01300000E-11	6.30000000E+1	8.92113822E-5
3.24019300E+6	4.44998627E+1	0.00000000E+0	0.00000000E+0	2.64500000E-11	9.77000000E-12	5.70000000E+1	8.95730632E-5
3.24548600E+6	4.45995984E+1	0.00000000E+0	0.00000000E+0	2.58400000E-11	9.65000000E-12	6.80000000E+1	8.98562836E-5
3.25089500E+6	4.47001087E+1	0.00000000E+0	0.00000000E+0	2.53300000E-11	9.48000000E-12	5.10000000E+1	8.99084914E-5
3.25620900E+6	4.47999251E+1	0.00000000E+0	0.00000000E+0	2.46400000E-11	9.27000000E-12	3.90000000E+1	8.98694980E-5
3.26150300E+6	4.48996940E+1	0.00000000E+0	0.00000000E+0	2.40000000E-11	8.99000000E-12	4.90000000E+1	8.97236842E-5
3.26682400E+6	4.50005701E+1	0.00000000E+0	0.00000000E+0	2.33500000E-11	8.87000000E-12	4.00000000E+1	8.98138064E-5
