G:\BEAR_storage\User_Experiments\20220317_arneodo\file(1)_Region 7__0053.txt
Ring Energy (GeV): 2
Lifetime (hours): 0
Scan beginning: 3/19/2022	12:31:19 PM
Ring current (mA): 309.45
Source position: x (mm): -0.004 x' (mrad): 0.001 y (mm): 0.004 y' (mrad): 0.007
Scan end: 3/19/2022	1:24:26 PM
Ring current (mA): 309.33
Source position: x (mm): -0.004 x' (mrad): 0.003 y (mm): 0.004 y' (mrad): 0.006

SCAN TYPE: PHOTON ENERGY VS VAR_1 VS VAR_2

FILE INFO: FILE INFO:

SCAN PARAMETERS
waiting time (ms): 0
Number of scans: 1
Current scan number: 1
DARK OFF 
PREDARK OFF 

SCAN PARAMETERS
Regions configuration: 
number of regions: 7
Mirror grating scan: on
Timed acquisition: off
Region 1:
Initial energy (eV): 3.000000
Final energy (eV): 4.500000
Delta energy (eV): 0.100000
Deviation angle choice: Degrees: 
Deviation angle (°): NaN
B270 window
GNIM channel
range keithley B 200 pA
range keithley C 2 uA
range keithley A 200 pA
Var_1: PsiC 0.000000
Var_2: PhiM0.000000
Bias CEM (V): 0.000000
Bias Keithley B (V): -30.000000
Name region: 
Region 2:
Initial energy (eV): 4.000000
Final energy (eV): 8.000000
Delta energy (eV): 0.100000
Deviation angle choice: Degrees: 
Deviation angle (°): NaN
SiO2 window
GNIM channel
range keithley B 200 pA
range keithley C 2 uA
range keithley A 200 pA
Var_1: PsiC 0.000000
Var_2: PhiM0.000000
Bias CEM (V): 0.000000
Bias Keithley B (V): -30.000000
Name region: 
Region 3:
Initial energy (eV): 7.000000
Final energy (eV): 12.000000
Delta energy (eV): 0.100000
Deviation angle choice: Degrees: 
Deviation angle (°): NaN
filter LiF window
GNIM channel
range keithley B 200 pA
range keithley C 2 uA
range keithley A 200 pA
Var_1: PsiC 0.000000
Var_2: PhiM0.000000
Bias CEM (V): 0.000000
Bias Keithley B (V): -30.000000
Name region: 
Region 4:
Initial energy (eV): 11.000000
Final energy (eV): 18.000000
Delta energy (eV): 0.100000
Deviation angle choice: Degrees: 
Deviation angle (°): NaN
In filter
GNIM channel
range keithley B 200 pA
range keithley C 2 uA
range keithley A 200 pA
Var_1: PsiC 0.000000
Var_2: PhiM0.000000
Bias CEM (V): 0.000000
Bias Keithley B (V): -30.000000
Name region: 
Region 5:
Initial energy (eV): 15.000000
Final energy (eV): 25.000000
Delta energy (eV): 0.100000
Deviation angle choice: Degrees: 
Deviation angle (°): NaN
Sn filter
GNIM channel
range keithley B 200 pA
range keithley C 2 uA
range keithley A 200 pA
Var_1: PsiC 0.000000
Var_2: PhiM0.000000
Bias CEM (V): 0.000000
Bias Keithley B (V): -30.000000
Name region: 
Region 6:
Initial energy (eV): 23.000000
Final energy (eV): 45.000000
Delta energy (eV): 0.100000
Deviation angle choice: Degrees: 
Deviation angle (°): NaN
Full Beam
GNIM channel
range keithley B 20 nA
range keithley C 2 uA
range keithley A 20 nA
Var_1: PsiC 0.000000
Var_2: PhiM0.000000
Bias CEM (V): 0.000000
Bias Keithley B (V): -30.000000
Name region: 
Region 7:
Initial energy (eV): 23.000000
Final energy (eV): 45.000000
Delta energy (eV): 0.100000
Deviation angle choice: Degrees: 
Deviation angle (°): NaN
Al filter
GNIM channel
range keithley B 20 nA
range keithley C 2 uA
range keithley A 20 nA
Var_1: PsiC 0.000000
Var_2: PhiM0.000000
Bias CEM (V): 0.000000
Bias Keithley B (V): -30.000000
Name region: 

BEAR MONOCHROMATOR CONFIGURATION: 
Current Grating Position:     200056.70
Current Mirror Position: 9999.9
Current Grating: GNIM
P2 phiz position:  -0.0195
Mono axis position: 73.5000
Current Photon Energy (eV): 45.000
Current Deviation Angle: 29.905
Vertical Exit Slits (um): 100.000
Exit slit y axis position: 1.3625
Horizontal Exit Slits (um):  889.156
Exit slit z axis position: 1.9229
Mitutoyo position (mm): 

Dose on sample (mJ/cm^2): NaN

ENERGY CALIBRATION:
offset grating G1200: yes
Delta 0 order G1200:  -800.0
offset grating G1800: not
Delta 0 order G1800:  0.0
offset grating GNIM: not
Delta 0 order GNIM:  0.0
ZERO ORDER POSITIONS:
Grating G1200: Mirror position:  4938.0
Grating position: -105355.0
Grating G1800: 
Mirror position:  4938.0
Grating position: -106345.0
Grating GNIM: 
Mirror position:  10000.0
Grating position: 227300.0

Initial filter: Al filter

EXPERIMENTAL CHAMBER CONFIGURATION: 
PsiC (deg):   -0.000186
Phi Analyzer (degrees): 89.993255
Theta Manipulator (degrees): -44.000040
Theta Analyzer (degrees): -135.001450
PhiM (degrees): -0.004103
XM (mm): 0.000425
YM (mm): 19.932987
ZM (mm): (Warning: for kinetic energy scans, 
this parameter is given in the scan settings) 
-6.601438
TiltM (°): 0.000138

ELECTRON ANALYZER CONFIGURATION: 
Current Kinetik energy (eV): 35.0
Mode: DE = COST
Pass Energy (eV):  50.000
CEM: ON
Bias Front-Back CEM (V): 3499.561
Bias Back-Collector CEM (V): 100.874
Bias Retard-Front CEM: 100.087COIL VALUES
Ix (amps):2.820
Iy (amps): 6.789
Iz (amps): 37.337

POLARIZATION SELECTOR CONFIGURATION:
Psi1 (rad): -0.001665535
Psi2 (rad): 0.001417093
Z min position (mm): 46.599650
DZ position (mm): 18.599100
Zmin 0 (mm): 66.500000
DZ0 (mm): 53.000000

BEAM SELECTOR CONFIGURATION:
Zmin position (mm): NaN
DZ position (mm): NaN
Y+ position (mm): NaN
Y- position (mm): NaN

CHANNEL ELECTRON MULTIPLIER CONFIGURATION:
CEM configured: OFF
Bias CEM: 0.000000

FLUORESCENCE DETECTOR CONFIGURATION:
Not configured

LUMINESCENCE MONOCHROMATOR CONFIGURATION:
Optical fiber position (mm): 0.000000
Optical fiber Switch inside: OFF
Optical fiber Switch outside: ON
Monochromator wavelength (A): 0.000000
Limit Switches: ON

I0 MONITOR PARAMETERS:
I0 detector position(mm): -0.000000E+0
Lower switch: OFF
Upper switch: OFF
Valve status:open

PRESSURE PARAMETERS:
Monitor chamber pressure (mbar): 8.784e-10
Experimental chamber pressure -ION GAUGE-(mbar): 0.000000E+0

XMCD PARAMETERS:
Xmcd OFF
Xmcd Direction -
Xmcd current (A): 0.000000

Gated scan off

Instrument 1: AMMETER KEITHLEY 6517A B
Measure type: Current
range type: set range value
range value (ampere):  200 pA
Integration time:  set NPLC value
NPLC value: 10.000
Digital filter count: 2
SAMPLE BIAS (V): -30.000
Vsource: ON
Output Voltage value: 30.000
Vsource range: 1000 V

Range Keithley B changed to 20 nA

Range Keithley B changed to 200 pA

Range Keithley B changed to 20 nA

Range Keithley B changed to 200 pA

Range Keithley B changed to 20 nA

Range Keithley B changed to 200 pA

Range Keithley B changed to 20 nA

Range Keithley B changed to 200 nA

Range Keithley B changed to 200 pA

Range Keithley B changed to 20 nA

Range Keithley B changed to 200 pA

Range Keithley B changed to 20 nA

Range Keithley B changed to 200 pA

Range Keithley B changed to 20 nA

Range Keithley B changed to 200 pA

Range Keithley B changed to 20 nA

Range Keithley B changed to 200 pA

Range Keithley B changed to 20 nA

Range Keithley B changed to 200 pA

Range Keithley B changed to 20 nA

Range Keithley B changed to 200 pA

Range Keithley B changed to 20 nA

Range Keithley B changed to 200 pA

Range Keithley B changed to 20 nA

Range Keithley B changed to 200 pA

Range Keithley B changed to 20 nA

Range Keithley B changed to 200 pA

Range Keithley B changed to 20 nA

Range Keithley B changed to 200 pA

Range Keithley B changed to 20 nA

Range Keithley B changed to 200 pA

Range Keithley B changed to 20 nA

Range Keithley B changed to 200 pA

Range Keithley B changed to 20 nA

Range Keithley B changed to 200 pA

Range Keithley B changed to 20 nA

Range Keithley B changed to 200 pA

Range Keithley B changed to 20 nA

Range Keithley B changed to 200 pA

Range Keithley B changed to 20 nA

Instrument 2: AMMETER KEITHLEY 6517A A
Measure type: Current
range type: set range value
range value (ampere):  200 nA
Integration time:  set NPLC value
NPLC value: 10.000
Digital filter count: 2
Vsource: OFF
Output Voltage value: -0.000
Vsource range: 100 V
Trigger source: bus

Range Keithley A changed to 20 nA

Range Keithley A changed to 200 nA

Range Keithley A changed to 200 pA

Range Keithley A changed to 20 nA

Range Keithley A changed to 200 pA

Range Keithley A changed to 20 nA

Range Keithley A changed to 200 nA

Range Keithley A changed to 200 pA

Range Keithley A changed to 20 nA

Range Keithley A changed to 200 pA

Range Keithley A changed to 20 nA

Range Keithley A changed to 200 nA

Range Keithley A changed to 200 pA

Range Keithley A changed to 20 nA

Range Keithley A changed to 200 pA

Range Keithley A changed to 20 nA

Range Keithley A changed to 200 pA

Range Keithley A changed to 20 nA

Range Keithley A changed to 200 pA

Range Keithley A changed to 20 nA

Range Keithley A changed to 200 pA

Range Keithley A changed to 20 nA

Range Keithley A changed to 200 nA

Range Keithley A changed to 200 pA

Range Keithley A changed to 20 nA

Range Keithley A changed to 200 pA

Range Keithley A changed to 20 nA

Range Keithley A changed to 200 nA

Range Keithley A changed to 200 pA

Range Keithley A changed to 20 nA

Range Keithley A changed to 200 nA

Range Keithley A changed to 200 pA

Range Keithley A changed to 20 nA

Range Keithley A changed to 200 pA

Range Keithley A changed to 20 nA

Range Keithley A changed to 200 pA

Range Keithley A changed to 20 nA

Range Keithley A changed to 200 nA

Range Keithley A changed to 200 pA

Range Keithley A changed to 20 nA

Range Keithley A changed to 200 pA

Range Keithley A changed to 20 nA

Range Keithley A changed to 200 nA

Range Keithley A changed to 20 nA

Range Keithley A changed to 200 nA

Range Keithley A changed to 200 pA

Range Keithley A changed to 20 nA

Range Keithley A changed to 200 nA

Range Keithley A changed to 2 uA

Range Keithley A changed to 20 nA

Range Keithley A changed to 200 nA

Range Keithley A changed to 2 uA

Range Keithley A changed to 20 nA

Range Keithley A changed to 200 nA

Range Keithley A changed to 200 pA

Range Keithley A changed to 2 uA

Range Keithley A changed to 20 nA

Range Keithley A changed to 200 nA

Range Keithley A changed to 200 pA

Range Keithley A changed to 20 nA

Range Keithley A changed to 2 uA

Range Keithley A changed to 20 nA

Range Keithley A changed to 200 nA

Range Keithley A changed to 20 nA

Range Keithley A changed to 200 nA

Range Keithley A changed to 200 pA

Range Keithley A changed to 2 uA

Range Keithley A changed to 20 nA

Range Keithley A changed to 200 nA

Range Keithley A changed to 20 nA

Range Keithley A changed to 200 nA

Range Keithley A changed to 200 pA

Range Keithley A changed to 20 nA

Range Keithley A changed to 200 nA

Range Keithley A changed to 20 nA

Range Keithley A changed to 200 nA

Range Keithley A changed to 200 pA

Range Keithley A changed to 20 nA

Range Keithley A changed to 200 nA

Range Keithley A changed to 200 pA

Range Keithley A changed to 20 nA

Range Keithley A changed to 200 pA

Range Keithley A changed to 20 nA

Range Keithley A changed to 200 pA

Range Keithley A changed to 20 nA

Instrument 3: AMMETER KEITHLEY 6517A C 
Measure type: Current
range type: set range value
range value (ampere):  2 uA
Integration time:  set NPLC value
NPLC value: 10.000
Digital filter count: 2
Vsource: OFF
Output Voltage value: -0.000
Vsource range: 100 V
Trigger source: bus


Range Keithley C changed to 20 uA


Range Keithley C changed to 2 uA


Range Keithley C changed to 200 uA


Range Keithley C changed to 2 uA


Range Keithley C changed to 20 uA


Range Keithley C changed to 200 uA


Range Keithley C changed to 2 uA


Range Keithley C changed to 20 uA


Range Keithley C changed to 2 uA


Range Keithley C changed to 20 uA


Range Keithley C changed to 200 uA


Range Keithley C changed to 2 uA


Range Keithley C changed to 20 uA


Range Keithley C changed to 2 uA


Range Keithley C changed to 20 uA


Range Keithley C changed to 2 uA


Range Keithley C changed to 20 uA


Range Keithley C changed to 2 uA


________________________________________________________________________________

RelativeTime (msec)	Photon Energy	Var_1	Var_2	INSTR_1_Sample with Bias _(ampere ) 	INSTR_2_Monitor IM_(ampere)  	INSTR_3_Diode A3_(ampere)	I_BPM_sum (Amps)	
________________________________________________________________________________

2.47066900E+6	2.30003471E+1	0.00000000E+0	0.00000000E+0	-1.40000000E-13	2.40000000E-11	4.22200000E-9	8.86400179E-5
2.47495700E+6	2.30995903E+1	0.00000000E+0	0.00000000E+0	-1.00000000E-14	2.48600000E-11	4.38800000E-9	8.89176683E-5
2.47844800E+6	2.31999576E+1	0.00000000E+0	0.00000000E+0	-3.40000000E-13	2.57500000E-11	4.53700000E-9	8.90060412E-5
2.48193700E+6	2.33000030E+1	0.00000000E+0	0.00000000E+0	-3.50000000E-13	2.64700000E-11	4.67400000E-9	8.88066308E-5
2.48543500E+6	2.34000201E+1	0.00000000E+0	0.00000000E+0	-5.00000000E-14	2.72200000E-11	4.84300000E-9	8.87660281E-5
2.48896700E+6	2.34999069E+1	0.00000000E+0	0.00000000E+0	-5.20000000E-13	2.77700000E-11	4.94900000E-9	8.86096404E-5
2.49249500E+6	2.36000583E+1	0.00000000E+0	0.00000000E+0	-1.50000000E-13	2.83400000E-11	5.10800000E-9	8.89082866E-5
2.49599200E+6	2.36999656E+1	0.00000000E+0	0.00000000E+0	-2.80000000E-13	2.86300000E-11	5.22400000E-9	8.87320475E-5
2.49949200E+6	2.37998891E+1	0.00000000E+0	0.00000000E+0	-1.80000000E-13	2.88000000E-11	5.25700000E-9	8.87675570E-5
2.50300500E+6	2.38999587E+1	0.00000000E+0	0.00000000E+0	-5.20000000E-13	2.88200000E-11	5.27300000E-9	8.88493614E-5
2.50636200E+6	2.39997907E+1	0.00000000E+0	0.00000000E+0	-2.60000000E-13	2.87500000E-11	5.30400000E-9	8.92993408E-5
2.50972500E+6	2.40999857E+1	0.00000000E+0	0.00000000E+0	-1.10000000E-13	2.85400000E-11	5.31000000E-9	8.92191725E-5
2.51302700E+6	2.42000159E+1	0.00000000E+0	0.00000000E+0	-5.80000000E-13	2.82400000E-11	5.28500000E-9	8.92554539E-5
2.51650000E+6	2.43002043E+1	0.00000000E+0	0.00000000E+0	-3.70000000E-13	2.78300000E-11	5.23800000E-9	8.90962409E-5
2.51988700E+6	2.43999122E+1	0.00000000E+0	0.00000000E+0	-5.40000000E-13	2.74700000E-11	5.20200000E-9	8.89815973E-5
2.52326500E+6	2.44999021E+1	0.00000000E+0	0.00000000E+0	-3.60000000E-13	2.70600000E-11	5.14300000E-9	8.89269637E-5
2.52663500E+6	2.46002204E+1	0.00000000E+0	0.00000000E+0	-4.90000000E-13	2.66900000E-11	5.09100000E-9	8.88902532E-5
2.53001400E+6	2.47000675E+1	0.00000000E+0	0.00000000E+0	-2.50000000E-13	2.63900000E-11	5.04700000E-9	8.94066530E-5
2.53336300E+6	2.47999744E+1	0.00000000E+0	0.00000000E+0	-3.60000000E-13	2.61600000E-11	5.05700000E-9	8.89936345E-5
2.53676800E+6	2.49000849E+1	0.00000000E+0	0.00000000E+0	-3.90000000E-13	2.59600000E-11	5.03800000E-9	8.91394185E-5
2.54012400E+6	2.49998834E+1	0.00000000E+0	0.00000000E+0	-1.40000000E-13	2.58200000E-11	5.08900000E-9	8.90820043E-5
2.54346800E+6	2.51001246E+1	0.00000000E+0	0.00000000E+0	-4.40000000E-13	2.58700000E-11	5.05400000E-9	8.91023951E-5
2.54681000E+6	2.51999276E+1	0.00000000E+0	0.00000000E+0	-2.40000000E-13	2.58900000E-11	5.09700000E-9	8.93300282E-5
2.55015500E+6	2.53000566E+1	0.00000000E+0	0.00000000E+0	-4.30000000E-13	2.60500000E-11	5.18100000E-9	8.85293887E-5
2.55360000E+6	2.53999829E+1	0.00000000E+0	0.00000000E+0	-3.00000000E-13	2.62200000E-11	5.24800000E-9	8.89808314E-5
2.55689400E+6	2.54999577E+1	0.00000000E+0	0.00000000E+0	-4.70000000E-13	2.64300000E-11	5.29100000E-9	8.87031065E-5
2.56023600E+6	2.56001872E+1	0.00000000E+0	0.00000000E+0	-7.40000000E-13	2.66900000E-11	5.35200000E-9	8.92045396E-5
2.56359500E+6	2.56998583E+1	0.00000000E+0	0.00000000E+0	-4.60000000E-13	2.69400000E-11	5.40700000E-9	8.93274652E-5
2.56702400E+6	2.58000911E+1	0.00000000E+0	0.00000000E+0	-3.80000000E-13	2.71200000E-11	5.47900000E-9	8.89572488E-5
2.57034700E+6	2.59000124E+1	0.00000000E+0	0.00000000E+0	-3.00000000E-13	2.73000000E-11	5.58700000E-9	8.93553274E-5
2.57367200E+6	2.60001583E+1	0.00000000E+0	0.00000000E+0	-4.00000000E-13	2.74900000E-11	5.61100000E-9	8.86621670E-5
2.57701800E+6	2.60999684E+1	0.00000000E+0	0.00000000E+0	-5.30000000E-13	2.75700000E-11	5.65000000E-9	8.90011119E-5
2.58035000E+6	2.61998746E+1	0.00000000E+0	0.00000000E+0	-3.60000000E-13	2.75700000E-11	5.68500000E-9	8.91775565E-5
2.58368000E+6	2.63001530E+1	0.00000000E+0	0.00000000E+0	-1.10000000E-13	2.76000000E-11	5.70600000E-9	8.90566336E-5
2.58699000E+6	2.63999490E+1	0.00000000E+0	0.00000000E+0	-2.70000000E-13	2.75200000E-11	5.72200000E-9	8.90611934E-5
2.59033000E+6	2.64999888E+1	0.00000000E+0	0.00000000E+0	-4.00000000E-13	2.74400000E-11	5.71800000E-9	8.90079962E-5
2.59365400E+6	2.65999802E+1	0.00000000E+0	0.00000000E+0	-4.40000000E-13	2.72200000E-11	5.72300000E-9	8.89668779E-5
2.59700100E+6	2.66999135E+1	0.00000000E+0	0.00000000E+0	-5.00000000E-13	2.71000000E-11	5.65100000E-9	8.90380518E-5
2.60033200E+6	2.68001309E+1	0.00000000E+0	0.00000000E+0	-3.70000000E-13	2.68600000E-11	5.65300000E-9	8.92428087E-5
2.60365200E+6	2.68999210E+1	0.00000000E+0	0.00000000E+0	-5.40000000E-13	2.66900000E-11	5.59900000E-9	8.90292095E-5
2.60707900E+6	2.70000400E+1	0.00000000E+0	0.00000000E+0	-3.80000000E-13	2.63400000E-11	5.63000000E-9	8.89665054E-5
2.61040700E+6	2.70999468E+1	0.00000000E+0	0.00000000E+0	-3.80000000E-13	2.62600000E-11	5.56500000E-9	8.88122724E-5
2.61376400E+6	2.71999912E+1	0.00000000E+0	0.00000000E+0	-3.50000000E-13	2.59900000E-11	5.57600000E-9	8.93009441E-5
2.61709500E+6	2.73000462E+1	0.00000000E+0	0.00000000E+0	-3.40000000E-13	2.58300000E-11	5.59200000E-9	8.91519236E-5
2.62042300E+6	2.73999198E+1	0.00000000E+0	0.00000000E+0	-3.90000000E-13	2.57500000E-11	5.50700000E-9	8.88631956E-5
2.62376000E+6	2.74999706E+1	0.00000000E+0	0.00000000E+0	-3.60000000E-13	2.57200000E-11	5.54600000E-9	8.93376397E-5
2.62720500E+6	2.76000701E+1	0.00000000E+0	0.00000000E+0	-3.70000000E-13	2.56300000E-11	5.55800000E-9	8.91841697E-5
2.63056600E+6	2.77000232E+1	0.00000000E+0	0.00000000E+0	-4.70000000E-13	2.56200000E-11	5.51400000E-9	8.89696734E-5
2.63391000E+6	2.77999450E+1	0.00000000E+0	0.00000000E+0	-2.00000000E-13	2.56300000E-11	5.60600000E-9	8.89151381E-5
2.63731400E+6	2.79000179E+1	0.00000000E+0	0.00000000E+0	-5.00000000E-13	2.57300000E-11	5.63200000E-9	8.91586499E-5
2.64145800E+6	2.80000451E+1	0.00000000E+0	0.00000000E+0	-2.10000000E-13	2.58800000E-11	5.69100000E-9	8.89590965E-5
2.64477300E+6	2.81001469E+1	0.00000000E+0	0.00000000E+0	-4.90000000E-13	2.61000000E-11	5.75800000E-9	8.90772836E-5
2.64818700E+6	2.81999273E+1	0.00000000E+0	0.00000000E+0	-3.70000000E-13	2.63500000E-11	5.81800000E-9	8.89582919E-5
2.65153300E+6	2.83000916E+1	0.00000000E+0	0.00000000E+0	-3.60000000E-13	2.66900000E-11	5.88100000E-9	8.90280025E-5
2.65488700E+6	2.83999155E+1	0.00000000E+0	0.00000000E+0	-4.80000000E-13	2.70400000E-11	5.99500000E-9	8.90171187E-5
2.65826400E+6	2.84999151E+1	0.00000000E+0	0.00000000E+0	-4.10000000E-13	2.73900000E-11	6.10100000E-9	8.89635431E-5
2.66162100E+6	2.86000198E+1	0.00000000E+0	0.00000000E+0	-5.80000000E-13	2.78800000E-11	6.21800000E-9	8.89658110E-5
2.66498800E+6	2.86998880E+1	0.00000000E+0	0.00000000E+0	-4.60000000E-13	2.84100000E-11	6.35800000E-9	8.89017837E-5
2.66830200E+6	2.88001172E+1	0.00000000E+0	0.00000000E+0	-1.90000000E-13	2.89700000E-11	6.49500000E-9	8.88839500E-5
2.67159600E+6	2.88999570E+1	0.00000000E+0	0.00000000E+0	-4.90000000E-13	2.95800000E-11	6.71900000E-9	8.91231196E-5
2.67479000E+6	2.89998728E+1	0.00000000E+0	0.00000000E+0	-5.00000000E-14	3.02100000E-11	6.88200000E-9	8.86011319E-5
2.67814200E+6	2.91001360E+1	0.00000000E+0	0.00000000E+0	-8.00000000E-14	3.10000000E-11	7.05500000E-9	8.87022392E-5
2.68147800E+6	2.92000498E+1	0.00000000E+0	0.00000000E+0	-5.50000000E-13	3.18300000E-11	7.21300000E-9	8.88901608E-5
2.68479700E+6	2.92999505E+1	0.00000000E+0	0.00000000E+0	-4.50000000E-13	3.25800000E-11	7.37300000E-9	8.92187255E-5
2.68812700E+6	2.93999014E+1	0.00000000E+0	0.00000000E+0	-2.20000000E-13	3.34100000E-11	7.64200000E-9	8.90367435E-5
2.69146000E+6	2.95001811E+1	0.00000000E+0	0.00000000E+0	-2.60000000E-13	3.43000000E-11	7.85700000E-9	8.91729163E-5
2.69475100E+6	2.95997153E+1	0.00000000E+0	0.00000000E+0	-4.70000000E-13	3.52100000E-11	8.07900000E-9	8.90697138E-5
2.69793900E+6	2.96998514E+1	0.00000000E+0	0.00000000E+0	-3.30000000E-13	3.61500000E-11	8.32400000E-9	8.89879422E-5
2.70112000E+6	2.98002319E+1	0.00000000E+0	0.00000000E+0	-3.90000000E-13	3.71000000E-11	8.58800000E-9	8.90997218E-5
2.70436000E+6	2.98999052E+1	0.00000000E+0	0.00000000E+0	-6.30000000E-13	3.80200000E-11	8.80800000E-9	8.90297430E-5
2.70756000E+6	3.00002474E+1	0.00000000E+0	0.00000000E+0	-3.80000000E-13	3.89600000E-11	9.04100000E-9	8.88048248E-5
2.71080300E+6	3.00997848E+1	0.00000000E+0	0.00000000E+0	-5.90000000E-13	4.00000000E-11	9.27500000E-9	8.87938128E-5
2.71399400E+6	3.01999103E+1	0.00000000E+0	0.00000000E+0	-2.80000000E-13	4.09000000E-11	9.50300000E-9	8.88157623E-5
2.71737600E+6	3.03003291E+1	0.00000000E+0	0.00000000E+0	-5.00000000E-14	4.16700000E-11	9.72900000E-9	8.89285432E-5
2.72056900E+6	3.03998320E+1	0.00000000E+0	0.00000000E+0	-4.20000000E-13	4.26200000E-11	9.92300000E-9	8.90484439E-5
2.72379700E+6	3.04999146E+1	0.00000000E+0	0.00000000E+0	-2.30000000E-13	4.32700000E-11	1.01340000E-8	8.88261037E-5
2.72714100E+6	3.06002758E+1	0.00000000E+0	0.00000000E+0	-2.50000000E-13	4.40200000E-11	1.03640000E-8	8.90971260E-5
2.73043700E+6	3.06999904E+1	0.00000000E+0	0.00000000E+0	-2.50000000E-13	4.47300000E-11	1.05270000E-8	8.89404313E-5
2.73370900E+6	3.07999694E+1	0.00000000E+0	0.00000000E+0	-1.50000000E-13	4.50500000E-11	1.06430000E-8	8.91959177E-5
2.73692700E+6	3.08997434E+1	0.00000000E+0	0.00000000E+0	-6.00000000E-13	4.54300000E-11	1.07490000E-8	8.88984369E-5
2.74021000E+6	3.10002446E+1	0.00000000E+0	0.00000000E+0	-2.00000000E-13	4.56300000E-11	1.08190000E-8	8.93347549E-5
2.74348500E+6	3.11000580E+1	0.00000000E+0	0.00000000E+0	-4.70000000E-13	4.57300000E-11	1.08600000E-8	8.89074372E-5
2.74672700E+6	3.12001185E+1	0.00000000E+0	0.00000000E+0	-5.00000000E-14	4.56900000E-11	1.08490000E-8	8.88670103E-5
2.74993600E+6	3.12997842E+1	0.00000000E+0	0.00000000E+0	-5.60000000E-13	4.53600000E-11	1.08180000E-8	8.92356949E-5
2.75315200E+6	3.14002499E+1	0.00000000E+0	0.00000000E+0	-4.70000000E-13	4.49700000E-11	1.06980000E-8	8.91758995E-5
2.75642400E+6	3.14999842E+1	0.00000000E+0	0.00000000E+0	-3.50000000E-13	4.46200000E-11	1.06390000E-8	8.91964095E-5
2.75967100E+6	3.15999461E+1	0.00000000E+0	0.00000000E+0	4.00000000E-14	4.39700000E-11	1.04940000E-8	8.90704202E-5
2.76288500E+6	3.16999696E+1	0.00000000E+0	0.00000000E+0	-1.00000000E-13	4.32200000E-11	1.03530000E-8	8.92762261E-5
2.76611400E+6	3.18000500E+1	0.00000000E+0	0.00000000E+0	-3.10000000E-13	4.23700000E-11	1.01530000E-8	8.91196804E-5
2.76936200E+6	3.19000159E+1	0.00000000E+0	0.00000000E+0	-5.10000000E-13	4.14800000E-11	9.97200000E-9	8.92350929E-5
2.77260600E+6	3.20001102E+1	0.00000000E+0	0.00000000E+0	-4.60000000E-13	4.05700000E-11	9.74800000E-9	8.91494589E-5
2.77583700E+6	3.20999927E+1	0.00000000E+0	0.00000000E+0	-3.10000000E-13	3.94900000E-11	9.54500000E-9	8.92041492E-5
2.77904100E+6	3.21998229E+1	0.00000000E+0	0.00000000E+0	-0.00000000E+0	3.84300000E-11	9.24600000E-9	8.90858578E-5
2.78224000E+6	3.23000202E+1	0.00000000E+0	0.00000000E+0	-2.60000000E-13	3.74500000E-11	8.95100000E-9	8.87248979E-5
2.78546000E+6	3.24000709E+1	0.00000000E+0	0.00000000E+0	-5.90000000E-13	3.63900000E-11	8.72700000E-9	8.92898517E-5
2.78875400E+6	3.25000530E+1	0.00000000E+0	0.00000000E+0	-3.20000000E-13	3.53200000E-11	8.51700000E-9	8.90061365E-5
2.79204100E+6	3.26000461E+1	0.00000000E+0	0.00000000E+0	-4.20000000E-13	3.42600000E-11	8.27100000E-9	8.90794026E-5
2.79527600E+6	3.26999575E+1	0.00000000E+0	0.00000000E+0	-6.50000000E-13	3.32700000E-11	8.04500000E-9	8.91764509E-5
2.79848300E+6	3.27998677E+1	0.00000000E+0	0.00000000E+0	-3.00000000E-13	3.22900000E-11	7.81100000E-9	8.90327172E-5
2.80176400E+6	3.29001250E+1	0.00000000E+0	0.00000000E+0	-6.80000000E-13	3.13500000E-11	7.58300000E-9	8.87805836E-5
2.80570700E+6	3.29998403E+1	0.00000000E+0	0.00000000E+0	-5.40000000E-13	3.04200000E-11	7.37600000E-9	8.86157082E-5
2.80892800E+6	3.31002513E+1	0.00000000E+0	0.00000000E+0	-3.60000000E-13	2.95100000E-11	7.19000000E-9	8.88107614E-5
2.81218100E+6	3.31998342E+1	0.00000000E+0	0.00000000E+0	-3.50000000E-13	2.86700000E-11	6.96800000E-9	8.88831543E-5
2.81540400E+6	3.33000181E+1	0.00000000E+0	0.00000000E+0	-4.50000000E-13	2.78600000E-11	6.77800000E-9	8.90858131E-5
2.81865400E+6	3.33998969E+1	0.00000000E+0	0.00000000E+0	-4.50000000E-13	2.71200000E-11	6.59400000E-9	8.91794192E-5
2.82186600E+6	3.35001932E+1	0.00000000E+0	0.00000000E+0	-6.20000000E-13	2.63300000E-11	6.43500000E-9	8.91156303E-5
2.82510600E+6	3.36000789E+1	0.00000000E+0	0.00000000E+0	-2.00000000E-13	2.56300000E-11	6.25400000E-9	8.90328841E-5
2.82832800E+6	3.37000052E+1	0.00000000E+0	0.00000000E+0	-5.80000000E-13	2.49500000E-11	6.07500000E-9	8.89983343E-5
2.83153000E+6	3.37998742E+1	0.00000000E+0	0.00000000E+0	-1.50000000E-13	2.42800000E-11	5.91200000E-9	8.91562270E-5
2.83474800E+6	3.38999612E+1	0.00000000E+0	0.00000000E+0	-3.70000000E-13	2.36200000E-11	5.73700000E-9	8.93326478E-5
2.83796100E+6	3.40000760E+1	0.00000000E+0	0.00000000E+0	-4.70000000E-13	2.30400000E-11	5.62800000E-9	8.89048831E-5
2.84119900E+6	3.41000238E+1	0.00000000E+0	0.00000000E+0	-6.10000000E-13	2.23600000E-11	5.48500000E-9	8.89095293E-5
2.84441600E+6	3.41999874E+1	0.00000000E+0	0.00000000E+0	-1.70000000E-13	2.17400000E-11	5.32100000E-9	8.94490527E-5
2.84763500E+6	3.42999620E+1	0.00000000E+0	0.00000000E+0	-4.60000000E-13	2.12000000E-11	5.16600000E-9	8.88699012E-5
2.85091500E+6	3.44000394E+1	0.00000000E+0	0.00000000E+0	-4.80000000E-13	2.05600000E-11	5.05200000E-9	8.88584243E-5
2.85414700E+6	3.45000216E+1	0.00000000E+0	0.00000000E+0	-2.80000000E-13	2.00800000E-11	4.93400000E-9	8.89073746E-5
2.85738600E+6	3.45997064E+1	0.00000000E+0	0.00000000E+0	-6.90000000E-13	1.94500000E-11	4.84700000E-9	8.91419904E-5
2.86063900E+6	3.46999688E+1	0.00000000E+0	0.00000000E+0	-4.40000000E-13	1.89600000E-11	4.66300000E-9	8.90706854E-5
2.86386800E+6	3.48002203E+1	0.00000000E+0	0.00000000E+0	-5.90000000E-13	1.84700000E-11	4.56400000E-9	8.92350303E-5
2.86710400E+6	3.48998583E+1	0.00000000E+0	0.00000000E+0	-3.10000000E-13	1.80000000E-11	4.46600000E-9	8.90760170E-5
2.87033300E+6	3.49999685E+1	0.00000000E+0	0.00000000E+0	-5.70000000E-13	1.75300000E-11	4.33800000E-9	8.90434222E-5
2.87356300E+6	3.50998493E+1	0.00000000E+0	0.00000000E+0	-4.40000000E-13	1.71000000E-11	4.23300000E-9	8.92491596E-5
2.87677600E+6	3.51998967E+1	0.00000000E+0	0.00000000E+0	-9.00000000E-14	1.66900000E-11	4.14200000E-9	8.91558604E-5
2.88009500E+6	3.53001089E+1	0.00000000E+0	0.00000000E+0	-2.50000000E-13	1.63000000E-11	4.06600000E-9	8.91762691E-5
2.88335600E+6	3.53999717E+1	0.00000000E+0	0.00000000E+0	-5.00000000E-13	1.58700000E-11	3.95400000E-9	8.91529368E-5
2.88658800E+6	3.54999892E+1	0.00000000E+0	0.00000000E+0	-5.80000000E-13	1.55800000E-11	3.86600000E-9	8.91928720E-5
2.88984400E+6	3.55998486E+1	0.00000000E+0	0.00000000E+0	-2.70000000E-13	1.51900000E-11	3.78300000E-9	8.92789709E-5
2.89313000E+6	3.56998547E+1	0.00000000E+0	0.00000000E+0	-6.60000000E-13	1.48800000E-11	3.69200000E-9	8.89612930E-5
2.89641000E+6	3.58000055E+1	0.00000000E+0	0.00000000E+0	-4.90000000E-13	1.45600000E-11	3.61000000E-9	8.87512968E-5
2.89964200E+6	3.58999825E+1	0.00000000E+0	0.00000000E+0	-1.00000000E-13	1.43000000E-11	3.56700000E-9	8.92044353E-5
2.90286100E+6	3.60000959E+1	0.00000000E+0	0.00000000E+0	-3.50000000E-13	1.39600000E-11	3.49600000E-9	8.88983087E-5
2.90610300E+6	3.60999172E+1	0.00000000E+0	0.00000000E+0	-7.30000000E-13	1.36900000E-11	3.40800000E-9	8.87361453E-5
2.90935700E+6	3.61998654E+1	0.00000000E+0	0.00000000E+0	-1.00000000E-13	1.34100000E-11	3.37300000E-9	8.89059292E-5
2.91257400E+6	3.63000456E+1	0.00000000E+0	0.00000000E+0	-5.10000000E-13	1.31400000E-11	3.32100000E-9	8.87457238E-5
2.91580800E+6	3.64000239E+1	0.00000000E+0	0.00000000E+0	-3.40000000E-13	1.28600000E-11	3.25500000E-9	8.92358171E-5
2.91902400E+6	3.65002278E+1	0.00000000E+0	0.00000000E+0	8.00000000E-14	1.26800000E-11	3.20800000E-9	8.90713649E-5
2.92225500E+6	3.66001093E+1	0.00000000E+0	0.00000000E+0	-7.20000000E-13	1.24500000E-11	3.14800000E-9	8.85171072E-5
2.92552300E+6	3.66998786E+1	0.00000000E+0	0.00000000E+0	-4.90000000E-13	1.22000000E-11	3.09900000E-9	8.89588820E-5
2.92877300E+6	3.67999720E+1	0.00000000E+0	0.00000000E+0	-4.90000000E-13	1.20100000E-11	3.02800000E-9	8.93839823E-5
2.93205500E+6	3.68999452E+1	0.00000000E+0	0.00000000E+0	-3.00000000E-13	1.17900000E-11	2.98500000E-9	8.87149857E-5
2.93526200E+6	3.70001276E+1	0.00000000E+0	0.00000000E+0	-3.70000000E-13	1.16200000E-11	2.93000000E-9	8.90032904E-5
2.93834200E+6	3.70995057E+1	0.00000000E+0	0.00000000E+0	-1.80000000E-13	1.13000000E-11	2.83400000E-9	8.90180724E-5
2.94145900E+6	3.71999845E+1	0.00000000E+0	0.00000000E+0	-4.00000000E-14	1.11800000E-11	2.83900000E-9	8.93632220E-5
2.94468100E+6	3.73005543E+1	0.00000000E+0	0.00000000E+0	-1.10000000E-13	1.09400000E-11	2.76000000E-9	8.93450873E-5
2.94794600E+6	3.74000692E+1	0.00000000E+0	0.00000000E+0	-5.10000000E-13	1.07800000E-11	2.75800000E-9	8.90406685E-5
2.95116500E+6	3.75000015E+1	0.00000000E+0	0.00000000E+0	-3.80000000E-13	1.05700000E-11	2.72700000E-9	8.92098980E-5
2.95446600E+6	3.76000072E+1	0.00000000E+0	0.00000000E+0	-2.20000000E-13	1.04200000E-11	2.67300000E-9	8.87397544E-5
2.95755100E+6	3.76996187E+1	0.00000000E+0	0.00000000E+0	-6.60000000E-13	1.02500000E-11	2.63000000E-9	8.92437356E-5
2.96075300E+6	3.78003431E+1	0.00000000E+0	0.00000000E+0	-2.60000000E-13	1.00000000E-11	2.58700000E-9	8.91878085E-5
2.96386900E+6	3.78994944E+1	0.00000000E+0	0.00000000E+0	-4.30000000E-13	9.85000000E-12	2.53300000E-9	8.92580198E-5
2.96788900E+6	3.80004651E+1	0.00000000E+0	0.00000000E+0	-2.00000000E-13	9.64000000E-12	2.48700000E-9	8.92891811E-5
2.97100600E+6	3.80991285E+1	0.00000000E+0	0.00000000E+0	-2.50000000E-13	9.46000000E-12	2.44100000E-9	8.95102786E-5
2.97422000E+6	3.82006902E+1	0.00000000E+0	0.00000000E+0	-5.50000000E-13	9.34000000E-12	2.40500000E-9	8.90791791E-5
2.97730100E+6	3.82997981E+1	0.00000000E+0	0.00000000E+0	-3.70000000E-13	9.20000000E-12	2.37700000E-9	8.92168509E-5
2.98038000E+6	3.83996625E+1	0.00000000E+0	0.00000000E+0	-4.00000000E-13	9.03000000E-12	2.34300000E-9	8.88146536E-5
2.98358300E+6	3.85007758E+1	0.00000000E+0	0.00000000E+0	-2.70000000E-13	8.90000000E-12	2.33400000E-9	8.91005116E-5
2.98681800E+6	3.86001097E+1	0.00000000E+0	0.00000000E+0	-3.00000000E-13	8.75000000E-12	2.24800000E-9	8.87319134E-5
2.98996700E+6	3.86995903E+1	0.00000000E+0	0.00000000E+0	-4.10000000E-13	8.57000000E-12	2.21000000E-9	8.91828763E-5
2.99319600E+6	3.88004460E+1	0.00000000E+0	0.00000000E+0	-4.00000000E-13	8.43000000E-12	2.19200000E-9	8.92012136E-5
2.99629600E+6	3.88993559E+1	0.00000000E+0	0.00000000E+0	-3.20000000E-13	8.26000000E-12	2.16600000E-9	8.87074427E-5
2.99937500E+6	3.90002626E+1	0.00000000E+0	0.00000000E+0	-5.40000000E-13	8.10000000E-12	2.11800000E-9	8.90425580E-5
3.00247000E+6	3.90996954E+1	0.00000000E+0	0.00000000E+0	-1.50000000E-13	7.99000000E-12	2.08300000E-9	8.88067471E-5
3.00559900E+6	3.92001388E+1	0.00000000E+0	0.00000000E+0	-4.20000000E-13	7.83000000E-12	2.09000000E-9	8.89744149E-5
3.00880100E+6	3.93004685E+1	0.00000000E+0	0.00000000E+0	-6.40000000E-13	7.69000000E-12	2.02100000E-9	8.90004205E-5
3.01186600E+6	3.93992835E+1	0.00000000E+0	0.00000000E+0	-3.20000000E-13	7.56000000E-12	1.99200000E-9	8.88815479E-5
3.01498900E+6	3.95002541E+1	0.00000000E+0	0.00000000E+0	-3.20000000E-13	7.40000000E-12	1.96100000E-9	8.93445807E-5
3.01810400E+6	3.96004620E+1	0.00000000E+0	0.00000000E+0	-3.00000000E-13	7.30000000E-12	1.92500000E-9	8.88985859E-5
3.02120200E+6	3.96998918E+1	0.00000000E+0	0.00000000E+0	-3.70000000E-13	7.13000000E-12	1.87900000E-9	8.91053813E-5
3.02428000E+6	3.97999515E+1	0.00000000E+0	0.00000000E+0	-5.30000000E-13	7.00000000E-12	1.85300000E-9	8.91058819E-5
3.02737700E+6	3.98999966E+1	0.00000000E+0	0.00000000E+0	-4.40000000E-13	6.88000000E-12	1.82700000E-9	8.87877421E-5
3.03047600E+6	4.00002844E+1	0.00000000E+0	0.00000000E+0	-5.60000000E-13	6.75000000E-12	1.79800000E-9	8.89278339E-5
3.03354200E+6	4.00998951E+1	0.00000000E+0	0.00000000E+0	-4.20000000E-13	6.73000000E-12	1.76900000E-9	8.90777098E-5
3.03668300E+6	4.02003992E+1	0.00000000E+0	0.00000000E+0	-2.90000000E-13	6.52000000E-12	1.76600000E-9	8.91696202E-5
3.03976500E+6	4.02992851E+1	0.00000000E+0	0.00000000E+0	-2.20000000E-13	6.45000000E-12	1.70400000E-9	8.89303403E-5
3.04287900E+6	4.04005257E+1	0.00000000E+0	0.00000000E+0	-4.00000000E-13	6.26000000E-12	1.64400000E-9	8.90682356E-5
3.04598100E+6	4.04997297E+1	0.00000000E+0	0.00000000E+0	-5.00000000E-13	6.20000000E-12	1.64300000E-9	8.89288293E-5
3.04907800E+6	4.05999608E+1	0.00000000E+0	0.00000000E+0	-3.30000000E-13	6.08000000E-12	1.62300000E-9	8.90407817E-5
3.05226500E+6	4.07001478E+1	0.00000000E+0	0.00000000E+0	-4.60000000E-13	5.99000000E-12	1.59800000E-9	8.87619899E-5
3.05536900E+6	4.08000143E+1	0.00000000E+0	0.00000000E+0	-5.50000000E-13	5.87000000E-12	1.57100000E-9	8.91372280E-5
3.05843900E+6	4.08998254E+1	0.00000000E+0	0.00000000E+0	-3.30000000E-13	5.75000000E-12	1.55500000E-9	8.91738461E-5
3.06157600E+6	4.10002634E+1	0.00000000E+0	0.00000000E+0	-5.00000000E-13	5.68000000E-12	1.54200000E-9	8.93176334E-5
3.06471200E+6	4.10995395E+1	0.00000000E+0	0.00000000E+0	-4.30000000E-13	5.56000000E-12	1.48800000E-9	8.92206358E-5
3.06781800E+6	4.12006846E+1	0.00000000E+0	0.00000000E+0	-4.00000000E-13	5.47000000E-12	1.47300000E-9	8.89252769E-5
3.07091000E+6	4.12999592E+1	0.00000000E+0	0.00000000E+0	-5.00000000E-13	5.41000000E-12	1.46500000E-9	8.90696215E-5
3.07402300E+6	4.13997134E+1	0.00000000E+0	0.00000000E+0	-3.50000000E-13	5.29000000E-12	1.44200000E-9	8.85087655E-5
3.07714400E+6	4.15000913E+1	0.00000000E+0	0.00000000E+0	-5.40000000E-13	5.21000000E-12	1.36800000E-9	8.91647892E-5
3.08033000E+6	4.15999673E+1	0.00000000E+0	0.00000000E+0	-3.70000000E-13	5.11000000E-12	1.41200000E-9	8.90004741E-5
3.08350600E+6	4.17000411E+1	0.00000000E+0	0.00000000E+0	-2.60000000E-13	4.97000000E-12	1.37700000E-9	8.88633506E-5
3.08660400E+6	4.18000263E+1	0.00000000E+0	0.00000000E+0	-5.50000000E-13	4.93000000E-12	1.34100000E-9	8.87821303E-5
3.08975700E+6	4.19000619E+1	0.00000000E+0	0.00000000E+0	-1.10000000E-13	4.91000000E-12	1.33400000E-9	8.88373093E-5
3.09284900E+6	4.20001449E+1	0.00000000E+0	0.00000000E+0	-6.00000000E-13	4.74000000E-12	1.30400000E-9	8.90842604E-5
3.09593300E+6	4.20999831E+1	0.00000000E+0	0.00000000E+0	-1.30000000E-13	4.73000000E-12	1.29300000E-9	8.91310887E-5
3.09908400E+6	4.21995695E+1	0.00000000E+0	0.00000000E+0	-5.40000000E-13	4.64000000E-12	1.28500000E-9	8.91714739E-5
3.10216200E+6	4.23000668E+1	0.00000000E+0	0.00000000E+0	-2.70000000E-13	4.50000000E-12	1.27900000E-9	8.89013128E-5
3.10526700E+6	4.24004562E+1	0.00000000E+0	0.00000000E+0	-2.40000000E-13	4.50000000E-12	1.22700000E-9	8.90791880E-5
3.10835900E+6	4.24995521E+1	0.00000000E+0	0.00000000E+0	-2.60000000E-13	4.44000000E-12	1.22600000E-9	8.90812593E-5
3.11146400E+6	4.26001504E+1	0.00000000E+0	0.00000000E+0	-1.90000000E-13	4.32000000E-12	1.22000000E-9	8.90331434E-5
3.11464300E+6	4.27000340E+1	0.00000000E+0	0.00000000E+0	-3.50000000E-13	4.39000000E-12	1.19000000E-9	8.90626268E-5
3.11773100E+6	4.28000878E+1	0.00000000E+0	0.00000000E+0	-4.60000000E-13	4.31000000E-12	1.19000000E-9	8.87905316E-5
3.12084900E+6	4.28998597E+1	0.00000000E+0	0.00000000E+0	-7.80000000E-13	4.22000000E-12	1.27400000E-9	8.89129417E-5
3.12473800E+6	4.29999467E+1	0.00000000E+0	0.00000000E+0	-2.40000000E-13	4.16000000E-12	1.15400000E-9	8.86198298E-5
3.12781800E+6	4.31003501E+1	0.00000000E+0	0.00000000E+0	-2.50000000E-13	4.13000000E-12	1.16300000E-9	8.89238315E-5
3.13091800E+6	4.32000034E+1	0.00000000E+0	0.00000000E+0	-7.30000000E-13	4.07000000E-12	1.18200000E-9	8.89042722E-5
3.13403400E+6	4.33002718E+1	0.00000000E+0	0.00000000E+0	-1.40000000E-13	3.94000000E-12	1.13700000E-9	8.93932419E-5
3.13712800E+6	4.33996215E+1	0.00000000E+0	0.00000000E+0	-2.40000000E-13	3.94000000E-12	1.09900000E-9	8.90868561E-5
3.14019800E+6	4.35002013E+1	0.00000000E+0	0.00000000E+0	-1.80000000E-13	3.86000000E-12	1.08900000E-9	8.87597965E-5
3.14330600E+6	4.36000057E+1	0.00000000E+0	0.00000000E+0	-3.30000000E-13	3.78000000E-12	1.07100000E-9	8.89727758E-5
3.14639200E+6	4.37001131E+1	0.00000000E+0	0.00000000E+0	-9.00000000E-14	3.77000000E-12	1.08300000E-9	8.86660950E-5
3.14948600E+6	4.37997406E+1	0.00000000E+0	0.00000000E+0	-3.10000000E-13	3.70000000E-12	1.05700000E-9	8.87296604E-5
3.15260600E+6	4.39001384E+1	0.00000000E+0	0.00000000E+0	-2.80000000E-13	3.65000000E-12	1.04900000E-9	8.86655973E-5
3.15572100E+6	4.40000483E+1	0.00000000E+0	0.00000000E+0	-6.00000000E-13	3.59000000E-12	1.01600000E-9	8.88309108E-5
3.15882100E+6	4.40997784E+1	0.00000000E+0	0.00000000E+0	-3.60000000E-13	3.57000000E-12	1.01000000E-9	8.89762925E-5
3.16191500E+6	4.41999616E+1	0.00000000E+0	0.00000000E+0	-4.40000000E-13	3.52000000E-12	9.98000000E-10	8.91543852E-5
3.16503800E+6	4.42997992E+1	0.00000000E+0	0.00000000E+0	-1.80000000E-13	3.49000000E-12	9.16000000E-10	8.93780189E-5
3.16814800E+6	4.44000888E+1	0.00000000E+0	0.00000000E+0	-1.90000000E-13	3.39000000E-12	9.56000000E-10	8.90392112E-5
3.17123100E+6	4.44997009E+1	0.00000000E+0	0.00000000E+0	-5.70000000E-13	3.35000000E-12	9.52000000E-10	8.90950220E-5
3.17432100E+6	4.46000860E+1	0.00000000E+0	0.00000000E+0	-2.70000000E-13	3.25000000E-12	9.63000000E-10	8.91418742E-5
3.17743700E+6	4.47001087E+1	0.00000000E+0	0.00000000E+0	-4.80000000E-13	3.22000000E-12	9.30000000E-10	8.89445977E-5
3.18049900E+6	4.47997611E+1	0.00000000E+0	0.00000000E+0	-3.30000000E-13	3.13000000E-12	9.22000000E-10	8.94109594E-5
3.18358600E+6	4.49000235E+1	0.00000000E+0	0.00000000E+0	-3.40000000E-13	3.12000000E-12	8.96000000E-10	8.92448085E-5
3.18669300E+6	4.50002392E+1	0.00000000E+0	0.00000000E+0	-4.20000000E-13	3.03000000E-12	8.66000000E-10	8.95158487E-5
