G:\BEAR_storage\User_Experiments\20220317_arneodo\file(1)_Region 7__0084.txt
Ring Energy (GeV): 2
Lifetime (hours): 15.5645
Scan beginning: 3/22/2022	12:25:16 AM
Ring current (mA): 309.21
Source position: x (mm): 0.007 x' (mrad): -0 y (mm): -0.001 y' (mrad): 0.001
Scan end: 3/22/2022	1:39:43 AM
Ring current (mA): 309.03
Source position: x (mm): 0.008 x' (mrad): -0 y (mm): -0.001 y' (mrad): 0.001

SCAN TYPE: PHOTON ENERGY VS VAR_1 VS VAR_2

FILE INFO: FILE INFO:

SCAN PARAMETERS
waiting time (ms): 1000
Number of scans: 1
Current scan number: 1
DARK OFF 
PREDARK OFF 

SCAN PARAMETERS
Regions configuration: 
number of regions: 7
Mirror grating scan: on
Timed acquisition: off
Region 1:
Initial energy (eV): 3.000000
Final energy (eV): 4.500000
Delta energy (eV): 0.100000
Deviation angle choice: Degrees: 
Deviation angle (°): NaN
B270 window
GNIM channel
range keithley B 200 pA
range keithley C 200 pA
range keithley A 200 pA
Var_1: PsiC 0.000000
Var_2: PhiM0.000000
Bias CEM (V): 0.000000
Bias Keithley B (V): -30.000000
Name region: 
Region 2:
Initial energy (eV): 4.000000
Final energy (eV): 8.000000
Delta energy (eV): 0.100000
Deviation angle choice: Degrees: 
Deviation angle (°): NaN
SiO2 window
GNIM channel
range keithley B 200 pA
range keithley C 200 pA
range keithley A 200 pA
Var_1: PsiC 0.000000
Var_2: PhiM0.000000
Bias CEM (V): 0.000000
Bias Keithley B (V): -30.000000
Name region: 
Region 3:
Initial energy (eV): 7.000000
Final energy (eV): 12.000000
Delta energy (eV): 0.100000
Deviation angle choice: Degrees: 
Deviation angle (°): NaN
filter LiF window
GNIM channel
range keithley B 200 pA
range keithley C 200 pA
range keithley A 200 pA
Var_1: PsiC 0.000000
Var_2: PhiM0.000000
Bias CEM (V): 0.000000
Bias Keithley B (V): -30.000000
Name region: 
Region 4:
Initial energy (eV): 11.000000
Final energy (eV): 18.000000
Delta energy (eV): 0.100000
Deviation angle choice: Degrees: 
Deviation angle (°): NaN
In filter
GNIM channel
range keithley B 200 pA
range keithley C 200 pA
range keithley A 200 pA
Var_1: PsiC 0.000000
Var_2: PhiM0.000000
Bias CEM (V): 0.000000
Bias Keithley B (V): -30.000000
Name region: 
Region 5:
Initial energy (eV): 15.000000
Final energy (eV): 25.000000
Delta energy (eV): 0.100000
Deviation angle choice: Degrees: 
Deviation angle (°): NaN
Sn filter
GNIM channel
range keithley B 200 pA
range keithley C 200 pA
range keithley A 200 pA
Var_1: PsiC 0.000000
Var_2: PhiM0.000000
Bias CEM (V): 0.000000
Bias Keithley B (V): -30.000000
Name region: 
Region 6:
Initial energy (eV): 23.000000
Final energy (eV): 45.000000
Delta energy (eV): 0.100000
Deviation angle choice: Degrees: 
Deviation angle (°): NaN
Full Beam
GNIM channel
range keithley B 20 nA
range keithley C 200 pA
range keithley A 20 nA
Var_1: PsiC 0.000000
Var_2: PhiM0.000000
Bias CEM (V): 0.000000
Bias Keithley B (V): -30.000000
Name region: 
Region 7:
Initial energy (eV): 23.000000
Final energy (eV): 45.000000
Delta energy (eV): 0.100000
Deviation angle choice: Degrees: 
Deviation angle (°): NaN
Al filter
GNIM channel
range keithley B 20 nA
range keithley C 200 pA
range keithley A 20 nA
Var_1: PsiC 0.000000
Var_2: PhiM0.000000
Bias CEM (V): 0.000000
Bias Keithley B (V): -30.000000
Name region: 

BEAR MONOCHROMATOR CONFIGURATION: 
Current Grating Position:     200056.80
Current Mirror Position: 10000.0
Current Grating: GNIM
P2 phiz position:  -0.0195
Mono axis position: 73.5000
Current Photon Energy (eV): 45.000
Current Deviation Angle: 29.905
Vertical Exit Slits (um): 100.000
Exit slit y axis position: 1.3625
Horizontal Exit Slits (um):  889.156
Exit slit z axis position: 1.9229
Mitutoyo position (mm): 

Dose on sample (mJ/cm^2): NaN

ENERGY CALIBRATION:
offset grating G1200: yes
Delta 0 order G1200:  -1100.0
offset grating G1800: not
Delta 0 order G1800:  0.0
offset grating GNIM: not
Delta 0 order GNIM:  0.0
ZERO ORDER POSITIONS:
Grating G1200: Mirror position:  4938.0
Grating position: -105355.0
Grating G1800: 
Mirror position:  4938.0
Grating position: -106345.0
Grating GNIM: 
Mirror position:  10000.0
Grating position: 227300.0

Initial filter: Al filter

EXPERIMENTAL CHAMBER CONFIGURATION: 
PsiC (deg):   -0.000186
Phi Analyzer (degrees): 89.993255
Theta Manipulator (degrees): -44.000040
Theta Analyzer (degrees): -135.001468
PhiM (degrees): -0.003077
XM (mm): 2.500900
YM (mm): 9.917125
ZM (mm): (Warning: for kinetic energy scans, 
this parameter is given in the scan settings) 
-15.001363
TiltM (°): 0.000138

ELECTRON ANALYZER CONFIGURATION: 
Current Kinetik energy (eV): 35.0
Mode: DE = COST
Pass Energy (eV):  100.000
CEM: ON
Bias Front-Back CEM (V): 3499.698
Bias Back-Collector CEM (V): 100.874
Bias Retard-Front CEM: 100.104COIL VALUES
Ix (amps):2.820
Iy (amps): 6.789
Iz (amps): 37.403

POLARIZATION SELECTOR CONFIGURATION:
Psi1 (rad): -0.001665535
Psi2 (rad): 0.001417093
Z min position (mm): 46.599650
DZ position (mm): 18.599100
Zmin 0 (mm): 65.700000
DZ0 (mm): 54.000000

BEAM SELECTOR CONFIGURATION:
Zmin position (mm): NaN
DZ position (mm): NaN
Y+ position (mm): NaN
Y- position (mm): NaN

CHANNEL ELECTRON MULTIPLIER CONFIGURATION:
CEM configured: OFF
Bias CEM: 0.000000

FLUORESCENCE DETECTOR CONFIGURATION:
Not configured

LUMINESCENCE MONOCHROMATOR CONFIGURATION:
Optical fiber position (mm): 0.000000
Optical fiber Switch inside: ON
Optical fiber Switch outside: ON
Monochromator wavelength (A): 0.000000
Limit Switches: ON

I0 MONITOR PARAMETERS:
I0 detector position(mm): NaN
Lower switch: OFF
Upper switch: OFF
Valve status:unread

PRESSURE PARAMETERS:
Monitor chamber pressure (mbar): 9.041e-10
Experimental chamber pressure -ION GAUGE-(mbar): 0.000000E+0

XMCD PARAMETERS:
Xmcd OFF
Xmcd Direction -
Xmcd current (A): 0.000000

Gated scan off

Instrument 1: AMMETER KEITHLEY 6517A B
Measure type: Current
range type: set range value
range value (ampere):  200 pA
Integration time:  set NPLC value
NPLC value: 10.000
Digital filter count: 2
SAMPLE BIAS (V): -30.000
Vsource: ON
Output Voltage value: 30.000
Vsource range: 1000 V

Range Keithley B changed to 20 nA

Range Keithley B changed to 200 pA

Range Keithley B changed to 20 nA

Range Keithley B changed to 200 pA

Keithley B Bias (V) changed to: 0.000000

Range Keithley B changed to 20 nA

Keithley B Bias (V) changed to: -30.000000

Range Keithley B changed to 200 pA

Range Keithley B changed to 20 nA

Range Keithley B changed to 200 pA

Range Keithley B changed to 20 nA

Range Keithley B changed to 200 pA

Range Keithley B changed to 20 nA

Range Keithley B changed to 200 pA

Keithley B Bias (V) changed to: 0.000000

Keithley B Bias (V) changed to: -30.000000

Range Keithley B changed to 20 nA

Range Keithley B changed to 200 pA

Range Keithley B changed to 20 nA

Range Keithley B changed to 200 pA

Range Keithley B changed to 20 nA

Range Keithley B changed to 200 pA

Range Keithley B changed to 20 nA

Instrument 2: AMMETER KEITHLEY 6517A A
Measure type: Current
range type: set range value
range value (ampere):  200 pA
Integration time:  set NPLC value
NPLC value: 10.000
Digital filter count: 2
Vsource: OFF
Output Voltage value: -0.000
Vsource range: 100 V
Trigger source: bus

Range Keithley A changed to 20 nA

Range Keithley A changed to 200 nA

Range Keithley A changed to 200 pA

Range Keithley A changed to 20 nA

Range Keithley A changed to 200 pA

Range Keithley A changed to 20 nA

Range Keithley A changed to 200 nA

Range Keithley A changed to 200 pA

Range Keithley A changed to 20 nA

Range Keithley A changed to 200 pA

Range Keithley A changed to 20 nA

Range Keithley A changed to 200 nA

Range Keithley A changed to 200 pA

Range Keithley A changed to 20 nA

Range Keithley A changed to 200 pA

Range Keithley A changed to 20 nA

Range Keithley A changed to 200 pA

Range Keithley A changed to 20 nA

Range Keithley A changed to 200 pA

Range Keithley A changed to 20 nA

Range Keithley A changed to 200 pA

Range Keithley A changed to 20 nA

Range Keithley A changed to 200 pA

Range Keithley A changed to 20 nA

Instrument 3: COUNTER ORTEC 996Integration time (sec): 1.000


Range Keithley C changed to 200 nA


Range Keithley C changed to 2 uA


Range Keithley C changed to 200 nA


Range Keithley C changed to 2 uA


Range Keithley C changed to 200 pA


________________________________________________________________________________

RelativeTime (msec)	Photon Energy	Var_1	Var_2	INSTR_1_Sample with Bias _(ampere ) 	INSTR_2_Monitor IM_(ampere)  	INSTR_3_Ortec 996 counts_(counts)	I_BPM_sum (Amps)	
________________________________________________________________________________

3.25712000E+6	2.30003903E+1	0.00000000E+0	0.00000000E+0	1.25000000E-12	2.51200000E-11	6.50000000E+1	8.94932317E-5
3.26429700E+6	2.31002879E+1	0.00000000E+0	0.00000000E+0	1.17000000E-12	2.60800000E-11	6.40000000E+1	8.99209011E-5
3.27005100E+6	2.32001775E+1	0.00000000E+0	0.00000000E+0	1.22000000E-12	2.68500000E-11	7.10000000E+1	8.95260888E-5
3.27576500E+6	2.33000474E+1	0.00000000E+0	0.00000000E+0	1.29000000E-12	2.76800000E-11	6.40000000E+1	8.94990998E-5
3.28157300E+6	2.33998859E+1	0.00000000E+0	0.00000000E+0	1.22000000E-12	2.84000000E-11	6.10000000E+1	8.96126198E-5
3.28720000E+6	2.34998166E+1	0.00000000E+0	0.00000000E+0	1.15000000E-12	2.90800000E-11	6.50000000E+1	8.94636380E-5
3.29296400E+6	2.36002859E+1	0.00000000E+0	0.00000000E+0	1.16000000E-12	2.95900000E-11	5.00000000E+1	8.93455284E-5
3.29872400E+6	2.36999656E+1	0.00000000E+0	0.00000000E+0	1.25000000E-12	2.99100000E-11	8.20000000E+1	8.98755210E-5
3.30445500E+6	2.38000280E+1	0.00000000E+0	0.00000000E+0	1.28000000E-12	3.00900000E-11	6.40000000E+1	8.97001433E-5
3.31015300E+6	2.39000053E+1	0.00000000E+0	0.00000000E+0	1.29000000E-12	3.01200000E-11	6.60000000E+1	8.93767016E-5
3.31575000E+6	2.39997437E+1	0.00000000E+0	0.00000000E+0	1.16000000E-12	3.00400000E-11	6.00000000E+1	8.99607438E-5
3.32132500E+6	2.41001756E+1	0.00000000E+0	0.00000000E+0	1.14000000E-12	2.98300000E-11	8.00000000E+1	8.94399094E-5
3.32683900E+6	2.41999201E+1	0.00000000E+0	0.00000000E+0	1.13000000E-12	2.95100000E-11	7.40000000E+1	8.94452828E-5
3.33257000E+6	2.43001078E+1	0.00000000E+0	0.00000000E+0	1.18000000E-12	2.91200000E-11	6.00000000E+1	8.95180034E-5
3.33811900E+6	2.43999608E+1	0.00000000E+0	0.00000000E+0	1.16000000E-12	2.87200000E-11	6.10000000E+1	8.92931806E-5
3.34369700E+6	2.44999021E+1	0.00000000E+0	0.00000000E+0	1.06000000E-12	2.82800000E-11	6.80000000E+1	8.95951914E-5
3.34931700E+6	2.46001215E+1	0.00000000E+0	0.00000000E+0	1.06000000E-12	2.79400000E-11	6.90000000E+1	8.94475477E-5
3.35489700E+6	2.47000675E+1	0.00000000E+0	0.00000000E+0	1.08000000E-12	2.76600000E-11	6.70000000E+1	9.00669623E-5
3.36053600E+6	2.48000247E+1	0.00000000E+0	0.00000000E+0	1.10000000E-12	2.73300000E-11	4.70000000E+1	8.99869341E-5
3.36625700E+6	2.49000343E+1	0.00000000E+0	0.00000000E+0	1.07000000E-12	2.72300000E-11	7.00000000E+1	9.00324750E-5
3.37180800E+6	2.49997302E+1	0.00000000E+0	0.00000000E+0	1.04000000E-12	2.70600000E-11	6.30000000E+1	9.00058347E-5
3.37753900E+6	2.51002791E+1	0.00000000E+0	0.00000000E+0	1.12000000E-12	2.70700000E-11	6.70000000E+1	8.95646589E-5
3.38318000E+6	2.52000832E+1	0.00000000E+0	0.00000000E+0	1.05000000E-12	2.70600000E-11	6.60000000E+1	8.96757352E-5
3.38879300E+6	2.52998997E+1	0.00000000E+0	0.00000000E+0	9.90000000E-13	2.71900000E-11	6.40000000E+1	8.99616289E-5
3.39441300E+6	2.54000356E+1	0.00000000E+0	0.00000000E+0	1.05000000E-12	2.73600000E-11	5.70000000E+1	8.98469227E-5
3.40005600E+6	2.55000108E+1	0.00000000E+0	0.00000000E+0	1.06000000E-12	2.75700000E-11	6.60000000E+1	8.98687142E-5
3.40565200E+6	2.56000800E+1	0.00000000E+0	0.00000000E+0	1.01000000E-12	2.77000000E-11	6.90000000E+1	9.02399141E-5
3.41125900E+6	2.56999123E+1	0.00000000E+0	0.00000000E+0	1.09000000E-12	2.80400000E-11	6.50000000E+1	9.00172251E-5
3.41680100E+6	2.58000367E+1	0.00000000E+0	0.00000000E+0	1.10000000E-12	2.82800000E-11	6.90000000E+1	8.97950220E-5
3.42242300E+6	2.59001220E+1	0.00000000E+0	0.00000000E+0	1.16000000E-12	2.84500000E-11	7.70000000E+1	8.96652507E-5
3.42799000E+6	2.60000478E+1	0.00000000E+0	0.00000000E+0	1.15000000E-12	2.86300000E-11	6.30000000E+1	8.99474728E-5
3.43357600E+6	2.60999684E+1	0.00000000E+0	0.00000000E+0	1.06000000E-12	2.87000000E-11	7.40000000E+1	8.99816352E-5
3.43917200E+6	2.61999868E+1	0.00000000E+0	0.00000000E+0	1.03000000E-12	2.87400000E-11	6.30000000E+1	8.96127241E-5
3.44475300E+6	2.63000965E+1	0.00000000E+0	0.00000000E+0	1.14000000E-12	2.87800000E-11	6.90000000E+1	8.98240316E-5
3.45031300E+6	2.63999490E+1	0.00000000E+0	0.00000000E+0	1.09000000E-12	2.86500000E-11	7.60000000E+1	9.01998389E-5
3.45593500E+6	2.65000462E+1	0.00000000E+0	0.00000000E+0	9.50000000E-13	2.85300000E-11	8.10000000E+1	8.95492809E-5
3.46154900E+6	2.66000380E+1	0.00000000E+0	0.00000000E+0	1.03000000E-12	2.83900000E-11	6.70000000E+1	8.98991483E-5
3.46713600E+6	2.66999717E+1	0.00000000E+0	0.00000000E+0	1.02000000E-12	2.81900000E-11	5.70000000E+1	8.96767902E-5
3.47274600E+6	2.68000136E+1	0.00000000E+0	0.00000000E+0	1.03000000E-12	2.80200000E-11	7.80000000E+1	9.00419909E-5
3.47831000E+6	2.68999210E+1	0.00000000E+0	0.00000000E+0	9.90000000E-13	2.77500000E-11	6.40000000E+1	9.00364327E-5
3.48388400E+6	2.69999208E+1	0.00000000E+0	0.00000000E+0	1.02000000E-12	2.75700000E-11	6.50000000E+1	8.99446207E-5
3.48951400E+6	2.71000668E+1	0.00000000E+0	0.00000000E+0	1.00000000E-12	2.72900000E-11	7.30000000E+1	8.97380578E-5
3.49507100E+6	2.71999307E+1	0.00000000E+0	0.00000000E+0	1.08000000E-12	2.71100000E-11	6.50000000E+1	8.99069774E-5
3.50062100E+6	2.72999853E+1	0.00000000E+0	0.00000000E+0	1.06000000E-12	2.69200000E-11	6.10000000E+1	9.00792587E-5
3.50619700E+6	2.74001038E+1	0.00000000E+0	0.00000000E+0	1.00000000E-12	2.67800000E-11	6.30000000E+1	8.98800182E-5
3.51178600E+6	2.74998470E+1	0.00000000E+0	0.00000000E+0	1.02000000E-12	2.66800000E-11	6.50000000E+1	8.98032534E-5
3.51738900E+6	2.75999456E+1	0.00000000E+0	0.00000000E+0	9.80000000E-13	2.66000000E-11	6.40000000E+1	8.98149359E-5
3.52294900E+6	2.77000232E+1	0.00000000E+0	0.00000000E+0	9.90000000E-13	2.65500000E-11	6.90000000E+1	8.94533204E-5
3.52853100E+6	2.78001345E+1	0.00000000E+0	0.00000000E+0	8.70000000E-13	2.65300000E-11	5.50000000E+1	8.95443397E-5
3.53414500E+6	2.78999543E+1	0.00000000E+0	0.00000000E+0	9.60000000E-13	2.66500000E-11	5.70000000E+1	8.96411824E-5
3.54052100E+6	2.79999811E+1	0.00000000E+0	0.00000000E+0	8.70000000E-13	2.67600000E-11	7.10000000E+1	8.94580828E-5
3.54615000E+6	2.80999534E+1	0.00000000E+0	0.00000000E+0	8.90000000E-13	2.69300000E-11	7.00000000E+1	8.94106405E-5
3.55172700E+6	2.82000573E+1	0.00000000E+0	0.00000000E+0	9.60000000E-13	2.71900000E-11	8.40000000E+1	8.98447501E-5
3.55729000E+6	2.82999607E+1	0.00000000E+0	0.00000000E+0	9.90000000E-13	2.74500000E-11	5.90000000E+1	8.94474583E-5
3.56290000E+6	2.83999814E+1	0.00000000E+0	0.00000000E+0	9.60000000E-13	2.78400000E-11	7.60000000E+1	8.98229795E-5
3.56847100E+6	2.84999814E+1	0.00000000E+0	0.00000000E+0	9.50000000E-13	2.82400000E-11	7.30000000E+1	8.95791071E-5
3.57407700E+6	2.86000198E+1	0.00000000E+0	0.00000000E+0	1.00000000E-12	2.87400000E-11	6.80000000E+1	8.97868830E-5
3.57963000E+6	2.87000226E+1	0.00000000E+0	0.00000000E+0	9.50000000E-13	2.92600000E-11	6.80000000E+1	8.94593763E-5
3.58516800E+6	2.88000494E+1	0.00000000E+0	0.00000000E+0	1.03000000E-12	2.98700000E-11	7.40000000E+1	8.97882777E-5
3.59075000E+6	2.88998887E+1	0.00000000E+0	0.00000000E+0	1.04000000E-12	3.04600000E-11	8.60000000E+1	8.95456898E-5
3.59619000E+6	2.89998041E+1	0.00000000E+0	0.00000000E+0	1.11000000E-12	3.11800000E-11	6.10000000E+1	8.96028327E-5
3.60173100E+6	2.91002744E+1	0.00000000E+0	0.00000000E+0	1.05000000E-12	3.19800000E-11	7.60000000E+1	9.02510363E-5
3.60729700E+6	2.91999104E+1	0.00000000E+0	0.00000000E+0	1.00000000E-12	3.28600000E-11	6.70000000E+1	8.97945839E-5
3.61273200E+6	2.92996699E+1	0.00000000E+0	0.00000000E+0	1.12000000E-12	3.36300000E-11	8.40000000E+1	8.99204153E-5
3.61830900E+6	2.94003252E+1	0.00000000E+0	0.00000000E+0	1.03000000E-12	3.45500000E-11	7.30000000E+1	8.99530309E-5
3.62389400E+6	2.94999678E+1	0.00000000E+0	0.00000000E+0	1.15000000E-12	3.53700000E-11	5.50000000E+1	9.00058049E-5
3.62953400E+6	2.96000733E+1	0.00000000E+0	0.00000000E+0	1.25000000E-12	3.63500000E-11	9.90000000E+1	8.99887192E-5
3.63497600E+6	2.96998514E+1	0.00000000E+0	0.00000000E+0	1.12000000E-12	3.72600000E-11	9.90000000E+1	8.96897244E-5
3.64042800E+6	2.97999416E+1	0.00000000E+0	0.00000000E+0	1.22000000E-12	3.83100000E-11	9.70000000E+1	8.98037451E-5
3.64589000E+6	2.98999782E+1	0.00000000E+0	0.00000000E+0	1.25000000E-12	3.92500000E-11	6.20000000E+1	8.98649293E-5
3.65131400E+6	3.00001739E+1	0.00000000E+0	0.00000000E+0	1.29000000E-12	4.01600000E-11	1.14000000E+2	8.97966790E-5
3.65675700E+6	3.00998588E+1	0.00000000E+0	0.00000000E+0	1.27000000E-12	4.11300000E-11	8.10000000E+1	8.99774867E-5
3.66220000E+6	3.02000594E+1	0.00000000E+0	0.00000000E+0	1.29000000E-12	4.21000000E-11	9.40000000E+1	8.96523732E-5
3.66762000E+6	3.03000290E+1	0.00000000E+0	0.00000000E+0	1.34000000E-12	4.29500000E-11	9.10000000E+1	8.97936064E-5
3.67304900E+6	3.03998320E+1	0.00000000E+0	0.00000000E+0	1.37000000E-12	4.38100000E-11	9.60000000E+1	9.00380600E-5
3.67848500E+6	3.05001427E+1	0.00000000E+0	0.00000000E+0	1.36000000E-12	4.46000000E-11	1.06000000E+2	8.97719311E-5
3.68396900E+6	3.05998932E+1	0.00000000E+0	0.00000000E+0	1.45000000E-12	4.52700000E-11	1.12000000E+2	8.98535538E-5
3.68944200E+6	3.07001444E+1	0.00000000E+0	0.00000000E+0	1.41000000E-12	4.59100000E-11	1.18000000E+2	8.98653912E-5
3.69489000E+6	3.08001244E+1	0.00000000E+0	0.00000000E+0	1.44000000E-12	4.63900000E-11	1.23000000E+2	8.94175308E-5
3.70034300E+6	3.09000555E+1	0.00000000E+0	0.00000000E+0	1.42000000E-12	4.67500000E-11	1.01000000E+2	8.99730432E-5
3.70579700E+6	3.10000090E+1	0.00000000E+0	0.00000000E+0	1.40000000E-12	4.69400000E-11	1.12000000E+2	8.97792506E-5
3.71122800E+6	3.10998999E+1	0.00000000E+0	0.00000000E+0	1.37000000E-12	4.70500000E-11	1.26000000E+2	8.99735200E-5
3.71678000E+6	3.12001185E+1	0.00000000E+0	0.00000000E+0	1.45000000E-12	4.70700000E-11	1.07000000E+2	8.99883199E-5
3.72226000E+6	3.13001044E+1	0.00000000E+0	0.00000000E+0	1.29000000E-12	4.68800000E-11	1.08000000E+2	8.96749484E-5
3.72771400E+6	3.13998471E+1	0.00000000E+0	0.00000000E+0	1.44000000E-12	4.65700000E-11	1.00000000E+2	8.98010331E-5
3.73317800E+6	3.15002274E+1	0.00000000E+0	0.00000000E+0	1.35000000E-12	4.60700000E-11	1.08000000E+2	8.97010046E-5
3.73861500E+6	3.15999461E+1	0.00000000E+0	0.00000000E+0	1.37000000E-12	4.54600000E-11	8.90000000E+1	8.95936894E-5
3.74411000E+6	3.17000517E+1	0.00000000E+0	0.00000000E+0	1.30000000E-12	4.47800000E-11	1.12000000E+2	8.99077701E-5
3.74956800E+6	3.18000500E+1	0.00000000E+0	0.00000000E+0	1.35000000E-12	4.39300000E-11	9.80000000E+1	8.98060906E-5
3.75501300E+6	3.19000990E+1	0.00000000E+0	0.00000000E+0	1.28000000E-12	4.31000000E-11	1.13000000E+2	8.95555782E-5
3.76048500E+6	3.19998592E+1	0.00000000E+0	0.00000000E+0	1.23000000E-12	4.20900000E-11	1.04000000E+2	8.94964951E-5
3.76594800E+6	3.20999927E+1	0.00000000E+0	0.00000000E+0	1.23000000E-12	4.10100000E-11	9.20000000E+1	8.98317385E-5
3.77139300E+6	3.21999923E+1	0.00000000E+0	0.00000000E+0	1.19000000E-12	3.99500000E-11	9.70000000E+1	8.94905167E-5
3.77682600E+6	3.22999349E+1	0.00000000E+0	0.00000000E+0	1.16000000E-12	3.88700000E-11	7.20000000E+1	8.96193730E-5
3.78224200E+6	3.23998994E+1	0.00000000E+0	0.00000000E+0	1.05000000E-12	3.77700000E-11	8.00000000E+1	8.94341367E-5
3.78764700E+6	3.25001393E+1	0.00000000E+0	0.00000000E+0	1.06000000E-12	3.67000000E-11	1.00000000E+2	9.00693524E-5
3.79306900E+6	3.26002198E+1	0.00000000E+0	0.00000000E+0	1.03000000E-12	3.55600000E-11	7.30000000E+1	8.95015138E-5
3.79854400E+6	3.27000448E+1	0.00000000E+0	0.00000000E+0	1.02000000E-12	3.45400000E-11	8.20000000E+1	8.97678214E-5
3.80397300E+6	3.28000435E+1	0.00000000E+0	0.00000000E+0	9.10000000E-13	3.35200000E-11	6.40000000E+1	8.98951340E-5
3.80939800E+6	3.29000366E+1	0.00000000E+0	0.00000000E+0	8.80000000E-13	3.25000000E-11	7.90000000E+1	8.93985527E-5
3.81555800E+6	3.29998403E+1	0.00000000E+0	0.00000000E+0	8.70000000E-13	3.15400000E-11	7.10000000E+1	8.93354642E-5
3.82096500E+6	3.31001618E+1	0.00000000E+0	0.00000000E+0	8.70000000E-13	3.05900000E-11	6.90000000E+1	8.93392193E-5
3.82640200E+6	3.31999243E+1	0.00000000E+0	0.00000000E+0	8.80000000E-13	2.97500000E-11	8.10000000E+1	8.94899415E-5
3.83181200E+6	3.33000181E+1	0.00000000E+0	0.00000000E+0	8.10000000E-13	2.89300000E-11	7.60000000E+1	8.95401138E-5
3.83725500E+6	3.33998057E+1	0.00000000E+0	0.00000000E+0	7.80000000E-13	2.80900000E-11	7.00000000E+1	8.93096583E-5
3.84273300E+6	3.35001932E+1	0.00000000E+0	0.00000000E+0	7.20000000E-13	2.73600000E-11	4.80000000E+1	8.94196796E-5
3.84822300E+6	3.35999866E+1	0.00000000E+0	0.00000000E+0	7.40000000E-13	2.66500000E-11	5.00000000E+1	8.93443304E-5
3.85363500E+6	3.37000052E+1	0.00000000E+0	0.00000000E+0	7.40000000E-13	2.59300000E-11	6.70000000E+1	9.00882232E-5
3.85906900E+6	3.37999675E+1	0.00000000E+0	0.00000000E+0	7.10000000E-13	2.53300000E-11	5.10000000E+1	9.00228280E-5
3.86458200E+6	3.38999612E+1	0.00000000E+0	0.00000000E+0	7.70000000E-13	2.45900000E-11	4.70000000E+1	8.97166896E-5
3.87011200E+6	3.39999816E+1	0.00000000E+0	0.00000000E+0	7.20000000E-13	2.40000000E-11	6.20000000E+1	8.97733229E-5
3.87559800E+6	3.41001188E+1	0.00000000E+0	0.00000000E+0	6.40000000E-13	2.33100000E-11	5.80000000E+1	8.99542558E-5
3.88102300E+6	3.41999874E+1	0.00000000E+0	0.00000000E+0	6.20000000E-13	2.26800000E-11	6.70000000E+1	9.00896984E-5
3.88643700E+6	3.42999620E+1	0.00000000E+0	0.00000000E+0	6.00000000E-13	2.20800000E-11	4.70000000E+1	8.99544823E-5
3.89186600E+6	3.44000394E+1	0.00000000E+0	0.00000000E+0	6.70000000E-13	2.14300000E-11	5.40000000E+1	8.96586436E-5
3.89732500E+6	3.45001189E+1	0.00000000E+0	0.00000000E+0	5.80000000E-13	2.08800000E-11	5.70000000E+1	8.94967245E-5
3.90280400E+6	3.45998042E+1	0.00000000E+0	0.00000000E+0	5.30000000E-13	2.03300000E-11	4.90000000E+1	8.95813184E-5
3.90827100E+6	3.47000672E+1	0.00000000E+0	0.00000000E+0	4.50000000E-13	1.97400000E-11	4.30000000E+1	8.94909816E-5
3.91371400E+6	3.48000223E+1	0.00000000E+0	0.00000000E+0	4.70000000E-13	1.92000000E-11	3.90000000E+1	8.98664701E-5
3.91918400E+6	3.48999578E+1	0.00000000E+0	0.00000000E+0	4.40000000E-13	1.88400000E-11	4.50000000E+1	8.96096783E-5
3.92463900E+6	3.49998684E+1	0.00000000E+0	0.00000000E+0	5.00000000E-13	1.83200000E-11	3.70000000E+1	8.95116972E-5
3.93012000E+6	3.50999499E+1	0.00000000E+0	0.00000000E+0	4.40000000E-13	1.78700000E-11	3.30000000E+1	8.96626788E-5
3.93556900E+6	3.51998967E+1	0.00000000E+0	0.00000000E+0	5.90000000E-13	1.73500000E-11	4.10000000E+1	8.97912192E-5
3.94107600E+6	3.53002107E+1	0.00000000E+0	0.00000000E+0	4.70000000E-13	1.70600000E-11	3.10000000E+1	8.99958301E-5
3.94651100E+6	3.53998693E+1	0.00000000E+0	0.00000000E+0	3.80000000E-13	1.66700000E-11	2.00000000E+1	9.01247281E-5
3.95195100E+6	3.55000922E+1	0.00000000E+0	0.00000000E+0	4.70000000E-13	1.62200000E-11	2.70000000E+1	8.98472863E-5
3.95744000E+6	3.55997450E+1	0.00000000E+0	0.00000000E+0	3.80000000E-13	1.58300000E-11	4.00000000E+1	8.98831534E-5
3.96295400E+6	3.56999589E+1	0.00000000E+0	0.00000000E+0	3.90000000E-13	1.54600000E-11	2.30000000E+1	8.97757905E-5
3.96847600E+6	3.58000055E+1	0.00000000E+0	0.00000000E+0	3.90000000E-13	1.51600000E-11	3.40000000E+1	8.96771329E-5
3.97393900E+6	3.58999825E+1	0.00000000E+0	0.00000000E+0	4.20000000E-13	1.48500000E-11	2.80000000E+1	8.98101407E-5
3.97939200E+6	3.59998841E+1	0.00000000E+0	0.00000000E+0	4.40000000E-13	1.45100000E-11	2.80000000E+1	9.01166815E-5
3.98484000E+6	3.61000237E+1	0.00000000E+0	0.00000000E+0	2.10000000E-13	1.42300000E-11	3.30000000E+1	8.98974645E-5
3.99029700E+6	3.61999725E+1	0.00000000E+0	0.00000000E+0	4.00000000E-13	1.39700000E-11	2.20000000E+1	8.96190303E-5
3.99578100E+6	3.63001533E+1	0.00000000E+0	0.00000000E+0	3.30000000E-13	1.36900000E-11	2.50000000E+1	8.96497386E-5
4.00123400E+6	3.64001321E+1	0.00000000E+0	0.00000000E+0	3.40000000E-13	1.34500000E-11	1.40000000E+1	8.96525788E-5
4.00669100E+6	3.65000101E+1	0.00000000E+0	0.00000000E+0	3.80000000E-13	1.31800000E-11	2.70000000E+1	8.94817012E-5
4.01214400E+6	3.65999999E+1	0.00000000E+0	0.00000000E+0	3.20000000E-13	1.29800000E-11	2.70000000E+1	8.99022537E-5
4.01757400E+6	3.67000987E+1	0.00000000E+0	0.00000000E+0	3.30000000E-13	1.27500000E-11	1.70000000E+1	8.96160441E-5
4.02305700E+6	3.67998613E+1	0.00000000E+0	0.00000000E+0	3.30000000E-13	1.25200000E-11	1.80000000E+1	8.99756926E-5
4.02839000E+6	3.68992777E+1	0.00000000E+0	0.00000000E+0	3.50000000E-13	1.22900000E-11	2.40000000E+1	8.94287752E-5
4.03385500E+6	3.70006869E+1	0.00000000E+0	0.00000000E+0	3.20000000E-13	1.20800000E-11	1.40000000E+1	8.93657165E-5
4.03932500E+6	3.70999556E+1	0.00000000E+0	0.00000000E+0	3.20000000E-13	1.17900000E-11	1.60000000E+1	8.95424562E-5
4.04467900E+6	3.71995322E+1	0.00000000E+0	0.00000000E+0	2.50000000E-13	1.16000000E-11	2.50000000E+1	8.94425737E-5
4.05003600E+6	3.72999859E+1	0.00000000E+0	0.00000000E+0	3.20000000E-13	1.14400000E-11	1.70000000E+1	8.95459759E-5
4.05550100E+6	3.74004121E+1	0.00000000E+0	0.00000000E+0	2.90000000E-13	1.12200000E-11	1.50000000E+1	8.93181818E-5
4.06092200E+6	3.75002313E+1	0.00000000E+0	0.00000000E+0	1.80000000E-13	1.09900000E-11	1.80000000E+1	8.95649093E-5
4.06636400E+6	3.75998917E+1	0.00000000E+0	0.00000000E+0	2.70000000E-13	1.08800000E-11	2.40000000E+1	8.97016960E-5
4.07188900E+6	3.76999671E+1	0.00000000E+0	0.00000000E+0	2.30000000E-13	1.06300000E-11	1.90000000E+1	8.96922844E-5
4.07737000E+6	3.77999928E+1	0.00000000E+0	0.00000000E+0	2.60000000E-13	1.04100000E-11	1.20000000E+1	8.94125628E-5
4.08280100E+6	3.78999639E+1	0.00000000E+0	0.00000000E+0	2.40000000E-13	1.02600000E-11	1.40000000E+1	8.91869651E-5
4.08879800E+6	3.79990493E+1	0.00000000E+0	0.00000000E+0	2.10000000E-13	1.00400000E-11	1.40000000E+1	8.93987285E-5
4.09426700E+6	3.81004332E+1	0.00000000E+0	0.00000000E+0	2.30000000E-13	9.86000000E-12	2.40000000E+1	8.93241780E-5
4.09959300E+6	3.81998556E+1	0.00000000E+0	0.00000000E+0	2.40000000E-13	9.70000000E-12	1.70000000E+1	8.95346301E-5
4.10495700E+6	3.83000378E+1	0.00000000E+0	0.00000000E+0	1.40000000E-13	9.50000000E-12	1.50000000E+1	8.93613177E-5
4.11029000E+6	3.83997830E+1	0.00000000E+0	0.00000000E+0	1.80000000E-13	9.34000000E-12	1.30000000E+1	8.92964380E-5
4.11560400E+6	3.85001702E+1	0.00000000E+0	0.00000000E+0	1.80000000E-13	9.22000000E-12	1.40000000E+1	8.99844366E-5
4.12087300E+6	3.85997444E+1	0.00000000E+0	0.00000000E+0	1.80000000E-13	9.07000000E-12	1.40000000E+1	8.95856666E-5
4.12623500E+6	3.87000798E+1	0.00000000E+0	0.00000000E+0	1.20000000E-13	8.89000000E-12	7.00000000E+0	9.02378547E-5
4.13156000E+6	3.88000770E+1	0.00000000E+0	0.00000000E+0	2.20000000E-13	8.80000000E-12	1.80000000E+1	8.96308887E-5
4.13686700E+6	3.88998504E+1	0.00000000E+0	0.00000000E+0	2.20000000E-13	8.58000000E-12	1.20000000E+1	8.98146528E-5
4.14225200E+6	3.90005112E+1	0.00000000E+0	0.00000000E+0	1.80000000E-13	8.50000000E-12	1.10000000E+1	8.96825510E-5
4.14769200E+6	3.91003200E+1	0.00000000E+0	0.00000000E+0	2.70000000E-13	8.32000000E-12	1.20000000E+1	8.96083641E-5
4.15303000E+6	3.91995110E+1	0.00000000E+0	0.00000000E+0	1.70000000E-13	8.16000000E-12	1.90000000E+1	9.00076258E-5
4.15840100E+6	3.93002161E+1	0.00000000E+0	0.00000000E+0	1.50000000E-13	8.09000000E-12	1.00000000E+1	8.97514242E-5
4.16378800E+6	3.93997909E+1	0.00000000E+0	0.00000000E+0	1.50000000E-13	7.92000000E-12	1.40000000E+1	8.97352177E-5
4.16910500E+6	3.95003815E+1	0.00000000E+0	0.00000000E+0	1.10000000E-13	7.79000000E-12	7.00000000E+0	8.99357605E-5
4.17441000E+6	3.95995650E+1	0.00000000E+0	0.00000000E+0	1.80000000E-13	7.65000000E-12	1.40000000E+1	8.97384959E-5
4.17975900E+6	3.97000205E+1	0.00000000E+0	0.00000000E+0	2.00000000E-13	7.56000000E-12	1.50000000E+1	9.00500017E-5
4.18512400E+6	3.98003398E+1	0.00000000E+0	0.00000000E+0	1.20000000E-13	7.38000000E-12	1.10000000E+1	8.97606361E-5
4.19037600E+6	3.98996063E+1	0.00000000E+0	0.00000000E+0	1.20000000E-13	7.26000000E-12	1.10000000E+1	8.97555697E-5
4.19567700E+6	4.00002844E+1	0.00000000E+0	0.00000000E+0	1.20000000E-13	7.07000000E-12	1.50000000E+1	8.96326768E-5
4.20103700E+6	4.01002893E+1	0.00000000E+0	0.00000000E+0	4.00000000E-14	7.08000000E-12	1.30000000E+1	9.00557447E-5
4.20637100E+6	4.01998710E+1	0.00000000E+0	0.00000000E+0	2.10000000E-13	6.96000000E-12	1.70000000E+1	8.97692728E-5
4.21172300E+6	4.03000813E+1	0.00000000E+0	0.00000000E+0	2.00000000E-14	6.70000000E-12	1.10000000E+1	8.98679721E-5
4.21707800E+6	4.04001256E+1	0.00000000E+0	0.00000000E+0	1.80000000E-13	6.64000000E-12	7.00000000E+0	8.96971213E-5
4.22245900E+6	4.04999978E+1	0.00000000E+0	0.00000000E+0	2.60000000E-13	6.52000000E-12	4.00000000E+0	8.96305608E-5
4.22784900E+6	4.05998261E+1	0.00000000E+0	0.00000000E+0	1.40000000E-13	6.36000000E-12	5.00000000E+0	8.96716672E-5
4.23317700E+6	4.07004185E+1	0.00000000E+0	0.00000000E+0	5.00000000E-14	6.24000000E-12	9.00000000E+0	8.95652908E-5
4.23856200E+6	4.07996063E+1	0.00000000E+0	0.00000000E+0	2.30000000E-13	6.16000000E-12	1.00000000E+1	8.95249116E-5
4.24392300E+6	4.08999621E+1	0.00000000E+0	0.00000000E+0	1.70000000E-13	6.11000000E-12	8.00000000E+0	8.95753103E-5
4.24931300E+6	4.10004008E+1	0.00000000E+0	0.00000000E+0	9.00000000E-14	5.95000000E-12	9.00000000E+0	8.97868949E-5
4.25468900E+6	4.10996775E+1	0.00000000E+0	0.00000000E+0	1.10000000E-13	5.87000000E-12	1.00000000E+1	8.95496296E-5
4.26002600E+6	4.12002685E+1	0.00000000E+0	0.00000000E+0	1.30000000E-13	5.72000000E-12	9.00000000E+0	8.97438603E-5
4.26538400E+6	4.13000986E+1	0.00000000E+0	0.00000000E+0	9.00000000E-14	5.65000000E-12	1.50000000E+1	8.96371024E-5
4.27074600E+6	4.13997134E+1	0.00000000E+0	0.00000000E+0	1.50000000E-13	5.56000000E-12	9.00000000E+0	8.95779418E-5
4.27608000E+6	4.15000913E+1	0.00000000E+0	0.00000000E+0	5.00000000E-14	5.43000000E-12	9.00000000E+0	8.92481106E-5
4.28141800E+6	4.16002501E+1	0.00000000E+0	0.00000000E+0	1.40000000E-13	5.42000000E-12	1.20000000E+1	8.99537343E-5
4.28684500E+6	4.17001831E+1	0.00000000E+0	0.00000000E+0	4.00000000E-14	5.28000000E-12	6.00000000E+0	8.95299243E-5
4.29221900E+6	4.17998836E+1	0.00000000E+0	0.00000000E+0	1.40000000E-13	5.21000000E-12	2.00000000E+0	8.94529270E-5
4.29763600E+6	4.19002053E+1	0.00000000E+0	0.00000000E+0	1.40000000E-13	5.13000000E-12	1.30000000E+1	8.95525026E-5
4.30296000E+6	4.19997125E+1	0.00000000E+0	0.00000000E+0	1.50000000E-13	5.10000000E-12	4.00000000E+0	8.91749488E-5
4.30831300E+6	4.21001279E+1	0.00000000E+0	0.00000000E+0	6.00000000E-14	4.89000000E-12	6.00000000E+0	8.95795005E-5
4.31369100E+6	4.22000060E+1	0.00000000E+0	0.00000000E+0	1.30000000E-13	4.95000000E-12	8.00000000E+0	8.94219595E-5
4.31904400E+6	4.22999206E+1	0.00000000E+0	0.00000000E+0	3.00000000E-14	4.85000000E-12	1.10000000E+1	8.96626877E-5
4.32441900E+6	4.24000155E+1	0.00000000E+0	0.00000000E+0	9.00000000E-14	4.77000000E-12	3.00000000E+0	8.92204153E-5
4.32983700E+6	4.25002901E+1	0.00000000E+0	0.00000000E+0	1.00000000E-13	4.75000000E-12	5.00000000E+0	8.93081056E-5
4.33529500E+6	4.25997055E+1	0.00000000E+0	0.00000000E+0	6.00000000E-14	4.67000000E-12	9.00000000E+0	8.95274686E-5
4.34073900E+6	4.27000340E+1	0.00000000E+0	0.00000000E+0	-3.00000000E-14	4.54000000E-12	4.00000000E+0	8.94946324E-5
4.34617700E+6	4.28002375E+1	0.00000000E+0	0.00000000E+0	9.00000000E-14	4.44000000E-12	2.00000000E+0	8.92119842E-5
4.35160800E+6	4.28998597E+1	0.00000000E+0	0.00000000E+0	-0.00000000E+0	4.46000000E-12	8.00000000E+0	8.99162936E-5
4.35774000E+6	4.29999467E+1	0.00000000E+0	0.00000000E+0	9.00000000E-14	4.37000000E-12	4.00000000E+0	8.96102774E-5
4.36310800E+6	4.31003501E+1	0.00000000E+0	0.00000000E+0	9.00000000E-14	4.37000000E-12	4.00000000E+0	8.97913235E-5
4.36850000E+6	4.32000034E+1	0.00000000E+0	0.00000000E+0	1.10000000E-13	4.27000000E-12	4.00000000E+0	8.96020907E-5
4.37389000E+6	4.32999654E+1	0.00000000E+0	0.00000000E+0	5.00000000E-14	4.22000000E-12	7.00000000E+0	8.98040104E-5
4.37922400E+6	4.34000833E+1	0.00000000E+0	0.00000000E+0	1.30000000E-13	4.14000000E-12	7.00000000E+0	8.99192649E-5
4.38459900E+6	4.34998921E+1	0.00000000E+0	0.00000000E+0	1.30000000E-13	4.11000000E-12	8.00000000E+0	8.97002864E-5
4.39006100E+6	4.36003164E+1	0.00000000E+0	0.00000000E+0	9.00000000E-14	4.08000000E-12	8.00000000E+0	8.96961140E-5
4.39548300E+6	4.36998010E+1	0.00000000E+0	0.00000000E+0	1.10000000E-13	3.97000000E-12	5.00000000E+0	8.98762423E-5
4.40093000E+6	4.38000541E+1	0.00000000E+0	0.00000000E+0	2.00000000E-14	3.93000000E-12	4.00000000E+0	8.96920758E-5
4.40631900E+6	4.38998235E+1	0.00000000E+0	0.00000000E+0	-2.00000000E-14	3.93000000E-12	8.00000000E+0	8.98749757E-5
4.41186400E+6	4.40002065E+1	0.00000000E+0	0.00000000E+0	-9.00000000E-14	3.76000000E-12	4.00000000E+0	8.98025441E-5
4.41725300E+6	4.40997784E+1	0.00000000E+0	0.00000000E+0	1.30000000E-13	3.78000000E-12	6.00000000E+0	8.96426874E-5
4.42265300E+6	4.42001212E+1	0.00000000E+0	0.00000000E+0	1.70000000E-13	3.81000000E-12	2.00000000E+0	8.94873607E-5
4.42810400E+6	4.42997992E+1	0.00000000E+0	0.00000000E+0	1.50000000E-13	3.70000000E-12	8.00000000E+0	8.98041057E-5
4.43349300E+6	4.44000888E+1	0.00000000E+0	0.00000000E+0	-0.00000000E+0	3.64000000E-12	1.00000000E+1	8.96949905E-5
4.43891800E+6	4.44998627E+1	0.00000000E+0	0.00000000E+0	1.00000000E-13	3.56000000E-12	7.00000000E+0	8.96078693E-5
4.44428900E+6	4.45999235E+1	0.00000000E+0	0.00000000E+0	1.20000000E-13	3.54000000E-12	3.00000000E+0	8.98162383E-5
4.44971300E+6	4.47001087E+1	0.00000000E+0	0.00000000E+0	4.00000000E-14	3.49000000E-12	7.00000000E+0	9.00032538E-5
4.45516200E+6	4.47999251E+1	0.00000000E+0	0.00000000E+0	1.30000000E-13	3.39000000E-12	4.00000000E+0	8.95545351E-5
4.46053900E+6	4.49001882E+1	0.00000000E+0	0.00000000E+0	5.00000000E-14	3.31000000E-12	4.00000000E+0	8.96572250E-5
4.46590600E+6	4.50002392E+1	0.00000000E+0	0.00000000E+0	-1.70000000E-13	3.23000000E-12	2.00000000E+0	8.94563513E-5
