G:\BEAR_storage\User_Experiments\20220317_arneodo\file(1)_Region 6__0085.txt
Ring Energy (GeV): 2
Lifetime (hours): 15.7742
Scan beginning: 3/22/2022	2:55:31 AM
Ring current (mA): 309.17
Source position: x (mm): 0.008 x' (mrad): -0.001 y (mm): -0.001 y' (mrad): 0.002
Scan end: 3/22/2022	3:49:24 AM
Ring current (mA): 308.64
Source position: x (mm): 0.008 x' (mrad): -0.001 y (mm): -0.002 y' (mrad): 0.002

SCAN TYPE: PHOTON ENERGY VS VAR_1 VS VAR_2

FILE INFO: FILE INFO:

SCAN PARAMETERS
waiting time (ms): 1000
Number of scans: 1
Current scan number: 1
DARK OFF 
PREDARK OFF 

SCAN PARAMETERS
Regions configuration: 
number of regions: 7
Mirror grating scan: on
Timed acquisition: off
Region 1:
Initial energy (eV): 3.000000
Final energy (eV): 4.500000
Delta energy (eV): 0.100000
Deviation angle choice: Degrees: 
Deviation angle (°): NaN
B270 window
GNIM channel
range keithley B 200 pA
range keithley C 200 pA
range keithley A 200 pA
Var_1: PsiC 0.000000
Var_2: PhiM0.000000
Bias CEM (V): 0.000000
Bias Keithley B (V): -30.000000
Name region: 
Region 2:
Initial energy (eV): 4.000000
Final energy (eV): 8.000000
Delta energy (eV): 0.100000
Deviation angle choice: Degrees: 
Deviation angle (°): NaN
SiO2 window
GNIM channel
range keithley B 200 pA
range keithley C 200 pA
range keithley A 200 pA
Var_1: PsiC 0.000000
Var_2: PhiM0.000000
Bias CEM (V): 0.000000
Bias Keithley B (V): -30.000000
Name region: 
Region 3:
Initial energy (eV): 7.000000
Final energy (eV): 12.000000
Delta energy (eV): 0.100000
Deviation angle choice: Degrees: 
Deviation angle (°): NaN
filter LiF window
GNIM channel
range keithley B 200 pA
range keithley C 200 pA
range keithley A 200 pA
Var_1: PsiC 0.000000
Var_2: PhiM0.000000
Bias CEM (V): 0.000000
Bias Keithley B (V): -30.000000
Name region: 
Region 4:
Initial energy (eV): 11.000000
Final energy (eV): 18.000000
Delta energy (eV): 0.100000
Deviation angle choice: Degrees: 
Deviation angle (°): NaN
In filter
GNIM channel
range keithley B 200 pA
range keithley C 200 pA
range keithley A 200 pA
Var_1: PsiC 0.000000
Var_2: PhiM0.000000
Bias CEM (V): 0.000000
Bias Keithley B (V): -30.000000
Name region: 
Region 5:
Initial energy (eV): 15.000000
Final energy (eV): 25.000000
Delta energy (eV): 0.100000
Deviation angle choice: Degrees: 
Deviation angle (°): NaN
Sn filter
GNIM channel
range keithley B 200 pA
range keithley C 200 pA
range keithley A 200 pA
Var_1: PsiC 0.000000
Var_2: PhiM0.000000
Bias CEM (V): 0.000000
Bias Keithley B (V): -30.000000
Name region: 
Region 6:
Initial energy (eV): 23.000000
Final energy (eV): 45.000000
Delta energy (eV): 0.100000
Deviation angle choice: Degrees: 
Deviation angle (°): NaN
Full Beam
GNIM channel
range keithley B 20 nA
range keithley C 200 pA
range keithley A 20 nA
Var_1: PsiC 0.000000
Var_2: PhiM0.000000
Bias CEM (V): 0.000000
Bias Keithley B (V): -30.000000
Name region: 
Region 7:
Initial energy (eV): 23.000000
Final energy (eV): 45.000000
Delta energy (eV): 0.100000
Deviation angle choice: Degrees: 
Deviation angle (°): NaN
Al filter
GNIM channel
range keithley B 20 nA
range keithley C 200 pA
range keithley A 20 nA
Var_1: PsiC 0.000000
Var_2: PhiM0.000000
Bias CEM (V): 0.000000
Bias Keithley B (V): -30.000000
Name region: 

BEAR MONOCHROMATOR CONFIGURATION: 
Current Grating Position:     200056.80
Current Mirror Position: 10000.0
Current Grating: GNIM
P2 phiz position:  -0.0195
Mono axis position: 73.5000
Current Photon Energy (eV): 45.000
Current Deviation Angle: 29.905
Vertical Exit Slits (um): 100.000
Exit slit y axis position: 1.3625
Horizontal Exit Slits (um):  889.156
Exit slit z axis position: 1.9229
Mitutoyo position (mm): 

Dose on sample (mJ/cm^2): NaN

ENERGY CALIBRATION:
offset grating G1200: yes
Delta 0 order G1200:  -1100.0
offset grating G1800: not
Delta 0 order G1800:  0.0
offset grating GNIM: not
Delta 0 order GNIM:  0.0
ZERO ORDER POSITIONS:
Grating G1200: Mirror position:  4938.0
Grating position: -105355.0
Grating G1800: 
Mirror position:  4938.0
Grating position: -106345.0
Grating GNIM: 
Mirror position:  10000.0
Grating position: 227300.0

Initial filter: Al filter

EXPERIMENTAL CHAMBER CONFIGURATION: 
PsiC (deg):   -0.000186
Phi Analyzer (degrees): 89.993255
Theta Manipulator (degrees): -44.000040
Theta Analyzer (degrees): -135.001468
PhiM (degrees): -0.003077
XM (mm): 0.000913
YM (mm): 7.907125
ZM (mm): (Warning: for kinetic energy scans, 
this parameter is given in the scan settings) 
-10.201325
TiltM (°): 0.000138

ELECTRON ANALYZER CONFIGURATION: 
Current Kinetik energy (eV): 35.0
Mode: DE = COST
Pass Energy (eV):  100.000
CEM: ON
Bias Front-Back CEM (V): 3499.698
Bias Back-Collector CEM (V): 100.874
Bias Retard-Front CEM: 100.104COIL VALUES
Ix (amps):2.820
Iy (amps): 6.789
Iz (amps): 37.403

POLARIZATION SELECTOR CONFIGURATION:
Psi1 (rad): -0.001665535
Psi2 (rad): 0.001417093
Z min position (mm): 46.599650
DZ position (mm): 18.599100
Zmin 0 (mm): 65.700000
DZ0 (mm): 54.000000

BEAM SELECTOR CONFIGURATION:
Zmin position (mm): NaN
DZ position (mm): NaN
Y+ position (mm): NaN
Y- position (mm): NaN

CHANNEL ELECTRON MULTIPLIER CONFIGURATION:
CEM configured: OFF
Bias CEM: 0.000000

FLUORESCENCE DETECTOR CONFIGURATION:
Not configured

LUMINESCENCE MONOCHROMATOR CONFIGURATION:
Optical fiber position (mm): 0.000000
Optical fiber Switch inside: ON
Optical fiber Switch outside: ON
Monochromator wavelength (A): 0.000000
Limit Switches: ON

I0 MONITOR PARAMETERS:
I0 detector position(mm): NaN
Lower switch: OFF
Upper switch: OFF
Valve status:unread

PRESSURE PARAMETERS:
Monitor chamber pressure (mbar): 9.057e-10
Experimental chamber pressure -ION GAUGE-(mbar): 0.000000E+0

XMCD PARAMETERS:
Xmcd OFF
Xmcd Direction -
Xmcd current (A): 0.000000

Gated scan off

Instrument 1: AMMETER KEITHLEY 6517A B
Measure type: Current
range type: set range value
range value (ampere):  200 pA
Integration time:  set NPLC value
NPLC value: 10.000
Digital filter count: 2
SAMPLE BIAS (V): -30.000
Vsource: ON
Output Voltage value: 30.000
Vsource range: 1000 V

Range Keithley B changed to 20 nA

Range Keithley B changed to 200 pA

Range Keithley B changed to 20 nA

Range Keithley B changed to 200 pA

Keithley B Bias (V) changed to: 0.000000

Range Keithley B changed to 20 nA

Keithley B Bias (V) changed to: -30.000000

Range Keithley B changed to 200 pA

Range Keithley B changed to 20 nA

Range Keithley B changed to 200 pA

Range Keithley B changed to 20 nA

Range Keithley B changed to 200 pA

Range Keithley B changed to 20 nA

Range Keithley B changed to 200 pA

Keithley B Bias (V) changed to: 0.000000

Keithley B Bias (V) changed to: -30.000000

Range Keithley B changed to 20 nA

Range Keithley B changed to 200 pA

Range Keithley B changed to 20 nA

Range Keithley B changed to 200 pA

Range Keithley B changed to 20 nA

Range Keithley B changed to 200 pA

Range Keithley B changed to 20 nA

Range Keithley B changed to 200 pA

Range Keithley B changed to 20 nA

Instrument 2: AMMETER KEITHLEY 6517A A
Measure type: Current
range type: set range value
range value (ampere):  200 pA
Integration time:  set NPLC value
NPLC value: 10.000
Digital filter count: 2
Vsource: OFF
Output Voltage value: -0.000
Vsource range: 100 V
Trigger source: bus

Range Keithley A changed to 20 nA

Range Keithley A changed to 200 nA

Range Keithley A changed to 200 pA

Range Keithley A changed to 20 nA

Range Keithley A changed to 200 pA

Range Keithley A changed to 20 nA

Range Keithley A changed to 200 nA

Range Keithley A changed to 200 pA

Range Keithley A changed to 20 nA

Range Keithley A changed to 200 pA

Range Keithley A changed to 20 nA

Range Keithley A changed to 200 nA

Range Keithley A changed to 200 pA

Range Keithley A changed to 20 nA

Range Keithley A changed to 200 pA

Range Keithley A changed to 20 nA

Range Keithley A changed to 200 pA

Range Keithley A changed to 20 nA

Range Keithley A changed to 200 pA

Range Keithley A changed to 20 nA

Range Keithley A changed to 200 pA

Range Keithley A changed to 20 nA

Range Keithley A changed to 200 pA

Range Keithley A changed to 20 nA

Range Keithley A changed to 200 pA

Range Keithley A changed to 20 nA

Instrument 3: COUNTER ORTEC 996Integration time (sec): 1.000


Range Keithley C changed to 200 nA


Range Keithley C changed to 2 uA


Range Keithley C changed to 200 nA


Range Keithley C changed to 2 uA


Range Keithley C changed to 200 pA


________________________________________________________________________________

RelativeTime (msec)	Photon Energy	Var_1	Var_2	INSTR_1_Sample with Bias _(ampere ) 	INSTR_2_Monitor IM_(ampere)  	INSTR_3_Ortec 996 counts_(counts)	I_BPM_sum (Amps)	
________________________________________________________________________________

2.01103400E+6	2.30003471E+1	0.00000000E+0	0.00000000E+0	6.25000000E-12	2.81370000E-10	2.53000000E+2	8.93353300E-5
2.01803300E+6	2.30998083E+1	0.00000000E+0	0.00000000E+0	6.21000000E-12	2.80440000E-10	2.39000000E+2	8.93628167E-5
2.02399700E+6	2.32000895E+1	0.00000000E+0	0.00000000E+0	6.14000000E-12	2.79320000E-10	2.04000000E+2	8.94492792E-5
2.02968500E+6	2.33000030E+1	0.00000000E+0	0.00000000E+0	6.10000000E-12	2.77890000E-10	2.16000000E+2	8.94458341E-5
2.03535600E+6	2.33999307E+1	0.00000000E+0	0.00000000E+0	5.96000000E-12	2.75990000E-10	1.96000000E+2	8.96344798E-5
2.04105400E+6	2.35000874E+1	0.00000000E+0	0.00000000E+0	5.96000000E-12	2.73620000E-10	2.46000000E+2	8.93816727E-5
2.04679100E+6	2.35999673E+1	0.00000000E+0	0.00000000E+0	5.85000000E-12	2.70950000E-10	2.02000000E+2	8.91329425E-5
2.05247500E+6	2.37000115E+1	0.00000000E+0	0.00000000E+0	5.81000000E-12	2.67940000E-10	1.97000000E+2	8.96370399E-5
2.05815300E+6	2.38000280E+1	0.00000000E+0	0.00000000E+0	5.59000000E-12	2.64580000E-10	2.33000000E+2	8.91491966E-5
2.06384300E+6	2.38999587E+1	0.00000000E+0	0.00000000E+0	5.51000000E-12	2.60940000E-10	1.95000000E+2	8.89201538E-5
2.06940100E+6	2.39997437E+1	0.00000000E+0	0.00000000E+0	5.44000000E-12	2.56850000E-10	2.05000000E+2	8.92369287E-5
2.07497000E+6	2.41000807E+1	0.00000000E+0	0.00000000E+0	5.40000000E-12	2.52560000E-10	1.98000000E+2	8.92155634E-5
2.08045600E+6	2.42000637E+1	0.00000000E+0	0.00000000E+0	5.20000000E-12	2.48140000E-10	1.74000000E+2	8.90964435E-5
2.08611900E+6	2.43001560E+1	0.00000000E+0	0.00000000E+0	5.12000000E-12	2.43510000E-10	1.88000000E+2	8.91392307E-5
2.09163000E+6	2.43998635E+1	0.00000000E+0	0.00000000E+0	5.04000000E-12	2.38800000E-10	2.00000000E+2	8.92068641E-5
2.09716800E+6	2.44999512E+1	0.00000000E+0	0.00000000E+0	4.94000000E-12	2.34170000E-10	1.89000000E+2	8.92959791E-5
2.10283800E+6	2.46002204E+1	0.00000000E+0	0.00000000E+0	4.88000000E-12	2.29610000E-10	1.94000000E+2	8.92245399E-5
2.10844100E+6	2.46997185E+1	0.00000000E+0	0.00000000E+0	4.76000000E-12	2.26120000E-10	1.80000000E+2	8.95881283E-5
2.11398800E+6	2.48002257E+1	0.00000000E+0	0.00000000E+0	4.62000000E-12	2.21970000E-10	1.89000000E+2	8.97204893E-5
2.11954800E+6	2.48999329E+1	0.00000000E+0	0.00000000E+0	4.57000000E-12	2.17970000E-10	1.86000000E+2	8.96906453E-5
2.12520900E+6	2.50001387E+1	0.00000000E+0	0.00000000E+0	4.51000000E-12	2.14210000E-10	1.47000000E+2	8.96592485E-5
2.13147700E+6	2.50998672E+1	0.00000000E+0	0.00000000E+0	4.35000000E-12	2.10760000E-10	1.67000000E+2	8.94943672E-5
2.13702400E+6	2.52001351E+1	0.00000000E+0	0.00000000E+0	4.30000000E-12	2.07620000E-10	1.74000000E+2	8.94456463E-5
2.14256900E+6	2.52998997E+1	0.00000000E+0	0.00000000E+0	4.30000000E-12	2.04700000E-10	1.57000000E+2	8.99368751E-5
2.14815200E+6	2.53999302E+1	0.00000000E+0	0.00000000E+0	4.26000000E-12	2.02050000E-10	1.69000000E+2	8.95436334E-5
2.15366800E+6	2.55000108E+1	0.00000000E+0	0.00000000E+0	4.16000000E-12	1.99650000E-10	1.61000000E+2	8.94665825E-5
2.15921100E+6	2.56001336E+1	0.00000000E+0	0.00000000E+0	4.14000000E-12	1.97450000E-10	1.79000000E+2	8.92941194E-5
2.16470700E+6	2.56997504E+1	0.00000000E+0	0.00000000E+0	4.15000000E-12	1.95440000E-10	1.57000000E+2	8.93843847E-5
2.17022300E+6	2.58000911E+1	0.00000000E+0	0.00000000E+0	3.99000000E-12	1.93570000E-10	1.63000000E+2	8.96425890E-5
2.17574300E+6	2.59000124E+1	0.00000000E+0	0.00000000E+0	3.90000000E-12	1.91830000E-10	1.57000000E+2	8.96355229E-5
2.18126300E+6	2.60000478E+1	0.00000000E+0	0.00000000E+0	3.85000000E-12	1.90120000E-10	1.63000000E+2	8.96492886E-5
2.18678600E+6	2.60998571E+1	0.00000000E+0	0.00000000E+0	3.86000000E-12	1.88640000E-10	1.41000000E+2	8.94533532E-5
2.19231900E+6	2.62000990E+1	0.00000000E+0	0.00000000E+0	3.87000000E-12	1.87110000E-10	1.59000000E+2	8.93728244E-5
2.19788000E+6	2.62999834E+1	0.00000000E+0	0.00000000E+0	3.84000000E-12	1.85700000E-10	1.47000000E+2	8.94787299E-5
2.20340900E+6	2.64000059E+1	0.00000000E+0	0.00000000E+0	3.82000000E-12	1.84240000E-10	1.54000000E+2	8.96582204E-5
2.20895600E+6	2.64997592E+1	0.00000000E+0	0.00000000E+0	3.80000000E-12	1.82870000E-10	1.60000000E+2	8.95189601E-5
2.21449900E+6	2.66000958E+1	0.00000000E+0	0.00000000E+0	3.79000000E-12	1.81360000E-10	1.45000000E+2	8.92323928E-5
2.22003700E+6	2.66998552E+1	0.00000000E+0	0.00000000E+0	3.79000000E-12	1.79990000E-10	1.57000000E+2	8.92381715E-5
2.22557500E+6	2.68000723E+1	0.00000000E+0	0.00000000E+0	3.69000000E-12	1.78350000E-10	1.60000000E+2	8.92170059E-5
2.23109000E+6	2.68999210E+1	0.00000000E+0	0.00000000E+0	3.61000000E-12	1.76810000E-10	1.53000000E+2	8.95578879E-5
2.23664400E+6	2.69999804E+1	0.00000000E+0	0.00000000E+0	3.58000000E-12	1.75210000E-10	1.38000000E+2	8.93160450E-5
2.24215400E+6	2.71000668E+1	0.00000000E+0	0.00000000E+0	3.54000000E-12	1.73490000E-10	1.38000000E+2	8.95544487E-5
2.24769400E+6	2.71999307E+1	0.00000000E+0	0.00000000E+0	3.49000000E-12	1.71720000E-10	1.58000000E+2	8.93116849E-5
2.25323400E+6	2.72999853E+1	0.00000000E+0	0.00000000E+0	3.53000000E-12	1.69930000E-10	1.44000000E+2	8.92792123E-5
2.25881300E+6	2.73999811E+1	0.00000000E+0	0.00000000E+0	3.38000000E-12	1.68150000E-10	1.45000000E+2	8.94554155E-5
2.26434700E+6	2.74999088E+1	0.00000000E+0	0.00000000E+0	3.38000000E-12	1.66420000E-10	1.42000000E+2	8.94776540E-5
2.26991400E+6	2.75999456E+1	0.00000000E+0	0.00000000E+0	3.38000000E-12	1.64740000E-10	1.56000000E+2	8.92537819E-5
2.27547500E+6	2.76999605E+1	0.00000000E+0	0.00000000E+0	3.31000000E-12	1.63140000E-10	1.65000000E+2	8.93067049E-5
2.28104500E+6	2.78000082E+1	0.00000000E+0	0.00000000E+0	3.25000000E-12	1.61760000E-10	1.50000000E+2	8.92954814E-5
2.28660000E+6	2.79002087E+1	0.00000000E+0	0.00000000E+0	3.22000000E-12	1.60530000E-10	1.60000000E+2	8.94724893E-5
2.29205900E+6	2.79994686E+1	0.00000000E+0	0.00000000E+0	3.17000000E-12	1.59610000E-10	1.40000000E+2	8.94332307E-5
2.29763000E+6	2.81004695E+1	0.00000000E+0	0.00000000E+0	3.14000000E-12	1.59000000E-10	1.51000000E+2	8.92265098E-5
2.30318300E+6	2.81999273E+1	0.00000000E+0	0.00000000E+0	3.18000000E-12	1.58730000E-10	1.39000000E+2	8.95289975E-5
2.30870300E+6	2.83000261E+1	0.00000000E+0	0.00000000E+0	3.22000000E-12	1.58750000E-10	1.25000000E+2	8.90805440E-5
2.31425200E+6	2.83999814E+1	0.00000000E+0	0.00000000E+0	3.13000000E-12	1.59190000E-10	1.43000000E+2	8.93672513E-5
2.31977500E+6	2.84999814E+1	0.00000000E+0	0.00000000E+0	3.16000000E-12	1.60070000E-10	1.27000000E+2	8.89714526E-5
2.32534300E+6	2.86000198E+1	0.00000000E+0	0.00000000E+0	3.17000000E-12	1.61430000E-10	1.38000000E+2	8.93749165E-5
2.33090000E+6	2.87000899E+1	0.00000000E+0	0.00000000E+0	3.21000000E-12	1.63230000E-10	1.54000000E+2	8.91428845E-5
2.33631700E+6	2.87998461E+1	0.00000000E+0	0.00000000E+0	3.30000000E-12	1.65410000E-10	1.34000000E+2	8.91779797E-5
2.34185300E+6	2.89000252E+1	0.00000000E+0	0.00000000E+0	3.32000000E-12	1.68210000E-10	1.47000000E+2	8.94503342E-5
2.34736700E+6	2.90000790E+1	0.00000000E+0	0.00000000E+0	3.34000000E-12	1.71660000E-10	1.32000000E+2	8.95750927E-5
2.35287300E+6	2.90997900E+1	0.00000000E+0	0.00000000E+0	3.40000000E-12	1.75270000E-10	1.47000000E+2	8.97057879E-5
2.35836200E+6	2.91996317E+1	0.00000000E+0	0.00000000E+0	3.48000000E-12	1.79060000E-10	1.54000000E+2	8.96743911E-5
2.36390300E+6	2.93003012E+1	0.00000000E+0	0.00000000E+0	3.56000000E-12	1.83110000E-10	1.41000000E+2	8.94548523E-5
2.36942500E+6	2.93999721E+1	0.00000000E+0	0.00000000E+0	3.70000000E-12	1.87420000E-10	1.42000000E+2	8.95776677E-5
2.37496800E+6	2.95000389E+1	0.00000000E+0	0.00000000E+0	3.66000000E-12	1.91880000E-10	1.80000000E+2	8.96589058E-5
2.38052600E+6	2.96000017E+1	0.00000000E+0	0.00000000E+0	3.77000000E-12	1.96400000E-10	1.63000000E+2	8.95042288E-5
2.38592600E+6	2.96994910E+1	0.00000000E+0	0.00000000E+0	3.97000000E-12	2.00910000E-10	1.71000000E+2	8.95685303E-5
2.39135100E+6	2.98003770E+1	0.00000000E+0	0.00000000E+0	3.97000000E-12	2.05420000E-10	1.92000000E+2	8.97557425E-5
2.39690600E+6	2.99000513E+1	0.00000000E+0	0.00000000E+0	3.95000000E-12	2.09670000E-10	1.74000000E+2	8.97318142E-5
2.40235800E+6	2.99999533E+1	0.00000000E+0	0.00000000E+0	4.15000000E-12	2.13750000E-10	1.51000000E+2	8.94705045E-5
2.40846200E+6	3.00997108E+1	0.00000000E+0	0.00000000E+0	4.08000000E-12	2.17580000E-10	1.66000000E+2	8.95283806E-5
2.41395800E+6	3.02004320E+1	0.00000000E+0	0.00000000E+0	4.23000000E-12	2.21140000E-10	1.70000000E+2	8.94634681E-5
2.41935800E+6	3.02996539E+1	0.00000000E+0	0.00000000E+0	4.20000000E-12	2.24140000E-10	1.63000000E+2	8.95443159E-5
2.42475200E+6	3.03999831E+1	0.00000000E+0	0.00000000E+0	4.27000000E-12	2.26780000E-10	1.90000000E+2	8.96789419E-5
2.43029400E+6	3.05002187E+1	0.00000000E+0	0.00000000E+0	4.31000000E-12	2.29000000E-10	1.86000000E+2	8.95552146E-5
2.43569800E+6	3.05998167E+1	0.00000000E+0	0.00000000E+0	4.32000000E-12	2.30680000E-10	1.88000000E+2	8.92539846E-5
2.44112800E+6	3.06999134E+1	0.00000000E+0	0.00000000E+0	4.35000000E-12	2.31860000E-10	1.63000000E+2	8.96525162E-5
2.44656900E+6	3.07999694E+1	0.00000000E+0	0.00000000E+0	4.36000000E-12	2.32460000E-10	1.70000000E+2	8.96008688E-5
2.45196100E+6	3.08995874E+1	0.00000000E+0	0.00000000E+0	4.33000000E-12	2.32500000E-10	1.80000000E+2	8.93243449E-5
2.45742400E+6	3.10003231E+1	0.00000000E+0	0.00000000E+0	4.35000000E-12	2.32010000E-10	1.93000000E+2	8.95479965E-5
2.46285000E+6	3.10997418E+1	0.00000000E+0	0.00000000E+0	4.30000000E-12	2.30920000E-10	1.75000000E+2	8.94324350E-5
2.46826700E+6	3.12001185E+1	0.00000000E+0	0.00000000E+0	4.29000000E-12	2.29320000E-10	1.77000000E+2	8.94474017E-5
2.47370200E+6	3.13000244E+1	0.00000000E+0	0.00000000E+0	4.17000000E-12	2.27110000E-10	1.72000000E+2	8.95075547E-5
2.47911500E+6	3.14000888E+1	0.00000000E+0	0.00000000E+0	4.18000000E-12	2.24400000E-10	1.56000000E+2	8.93349128E-5
2.48453900E+6	3.14997409E+1	0.00000000E+0	0.00000000E+0	4.07000000E-12	2.21200000E-10	1.78000000E+2	8.91614961E-5
2.48994900E+6	3.15999461E+1	0.00000000E+0	0.00000000E+0	4.03000000E-12	2.17580000E-10	1.56000000E+2	8.92508941E-5
2.49540500E+6	3.17000517E+1	0.00000000E+0	0.00000000E+0	3.91000000E-12	2.13540000E-10	1.34000000E+2	8.92137574E-5
2.50083900E+6	3.18001326E+1	0.00000000E+0	0.00000000E+0	3.87000000E-12	2.09080000E-10	1.57000000E+2	8.95950871E-5
2.50625600E+6	3.18998496E+1	0.00000000E+0	0.00000000E+0	3.72000000E-12	2.04390000E-10	1.54000000E+2	8.92592388E-5
2.51166400E+6	3.19999429E+1	0.00000000E+0	0.00000000E+0	3.68000000E-12	1.99380000E-10	1.52000000E+2	8.95866948E-5
2.51708000E+6	3.20999927E+1	0.00000000E+0	0.00000000E+0	3.63000000E-12	1.94180000E-10	1.29000000E+2	8.93044161E-5
2.52246800E+6	3.21999076E+1	0.00000000E+0	0.00000000E+0	3.45000000E-12	1.88790000E-10	1.46000000E+2	8.91169297E-5
2.52788300E+6	3.23001054E+1	0.00000000E+0	0.00000000E+0	3.43000000E-12	1.83310000E-10	1.23000000E+2	8.96455782E-5
2.53326700E+6	3.23999852E+1	0.00000000E+0	0.00000000E+0	3.29000000E-12	1.77760000E-10	1.14000000E+2	8.94310462E-5
2.53863600E+6	3.24998804E+1	0.00000000E+0	0.00000000E+0	3.23000000E-12	1.72230000E-10	1.28000000E+2	8.95448136E-5
2.54403500E+6	3.26000461E+1	0.00000000E+0	0.00000000E+0	3.07000000E-12	1.66610000E-10	1.00000000E+2	8.93020945E-5
2.54943200E+6	3.26998701E+1	0.00000000E+0	0.00000000E+0	2.92000000E-12	1.61140000E-10	1.05000000E+2	8.93405008E-5
2.55480400E+6	3.27997798E+1	0.00000000E+0	0.00000000E+0	2.85000000E-12	1.55850000E-10	1.00000000E+2	8.92882752E-5
2.56018400E+6	3.29002135E+1	0.00000000E+0	0.00000000E+0	2.71000000E-12	1.50460000E-10	1.00000000E+2	8.94406008E-5
2.56558900E+6	3.30000182E+1	0.00000000E+0	0.00000000E+0	2.65000000E-12	1.45430000E-10	1.01000000E+2	8.91231166E-5
2.57099300E+6	3.30999828E+1	0.00000000E+0	0.00000000E+0	2.54000000E-12	1.40580000E-10	1.07000000E+2	8.92922269E-5
2.57640700E+6	3.32000143E+1	0.00000000E+0	0.00000000E+0	2.45000000E-12	1.35730000E-10	1.03000000E+2	8.91156154E-5
2.58179900E+6	3.33000181E+1	0.00000000E+0	0.00000000E+0	2.47000000E-12	1.31140000E-10	9.70000000E+1	8.91262667E-5
2.58722100E+6	3.33999880E+1	0.00000000E+0	0.00000000E+0	2.35000000E-12	1.26790000E-10	8.20000000E+1	8.93885421E-5
2.59262100E+6	3.34998264E+1	0.00000000E+0	0.00000000E+0	2.35000000E-12	1.22560000E-10	9.20000000E+1	8.92756867E-5
2.59805000E+6	3.35999866E+1	0.00000000E+0	0.00000000E+0	2.20000000E-12	1.18740000E-10	9.10000000E+1	8.94484448E-5
2.60345700E+6	3.37001908E+1	0.00000000E+0	0.00000000E+0	2.09000000E-12	1.15050000E-10	7.90000000E+1	8.95295011E-5
2.60889100E+6	3.37996875E+1	0.00000000E+0	0.00000000E+0	2.00000000E-12	1.11340000E-10	8.80000000E+1	8.95981150E-5
2.61428700E+6	3.39000552E+1	0.00000000E+0	0.00000000E+0	1.93000000E-12	1.07750000E-10	9.30000000E+1	8.95207393E-5
2.61971200E+6	3.40000760E+1	0.00000000E+0	0.00000000E+0	1.90000000E-12	1.04300000E-10	7.60000000E+1	8.94736844E-5
2.62508100E+6	3.40998337E+1	0.00000000E+0	0.00000000E+0	1.82000000E-12	1.00960000E-10	7.90000000E+1	8.96965819E-5
2.63048800E+6	3.42000830E+1	0.00000000E+0	0.00000000E+0	1.70000000E-12	9.77200000E-11	8.60000000E+1	8.93678652E-5
2.63588800E+6	3.42998659E+1	0.00000000E+0	0.00000000E+0	1.75000000E-12	9.47000000E-11	7.70000000E+1	8.95041334E-5
2.64126500E+6	3.44000394E+1	0.00000000E+0	0.00000000E+0	1.59000000E-12	9.17500000E-11	6.10000000E+1	8.97053736E-5
2.64666000E+6	3.45000216E+1	0.00000000E+0	0.00000000E+0	1.56000000E-12	8.89500000E-11	7.30000000E+1	8.98243743E-5
2.65209100E+6	3.45998042E+1	0.00000000E+0	0.00000000E+0	1.61000000E-12	8.62300000E-11	5.40000000E+1	8.96307218E-5
2.65749800E+6	3.47002640E+1	0.00000000E+0	0.00000000E+0	1.44000000E-12	8.35500000E-11	5.50000000E+1	8.95443189E-5
2.66291100E+6	3.47998244E+1	0.00000000E+0	0.00000000E+0	1.42000000E-12	8.10300000E-11	5.00000000E+1	8.96715420E-5
2.66831600E+6	3.48999578E+1	0.00000000E+0	0.00000000E+0	1.53000000E-12	7.86200000E-11	6.10000000E+1	8.93391954E-5
2.67372500E+6	3.49998684E+1	0.00000000E+0	0.00000000E+0	1.26000000E-12	7.62800000E-11	5.10000000E+1	8.96094161E-5
2.67992000E+6	3.51000506E+1	0.00000000E+0	0.00000000E+0	1.30000000E-12	7.40900000E-11	5.70000000E+1	8.97747296E-5
2.68532500E+6	3.52000992E+1	0.00000000E+0	0.00000000E+0	1.20000000E-12	7.20000000E-11	3.30000000E+1	8.93515783E-5
2.69074900E+6	3.52999053E+1	0.00000000E+0	0.00000000E+0	1.15000000E-12	6.99500000E-11	4.10000000E+1	8.95982104E-5
2.69617900E+6	3.53999717E+1	0.00000000E+0	0.00000000E+0	1.29000000E-12	6.79400000E-11	4.40000000E+1	8.97404390E-5
2.70158500E+6	3.54999892E+1	0.00000000E+0	0.00000000E+0	1.10000000E-12	6.60800000E-11	5.20000000E+1	8.92395692E-5
2.70707300E+6	3.55997450E+1	0.00000000E+0	0.00000000E+0	1.08000000E-12	6.42900000E-11	4.10000000E+1	8.93543052E-5
2.71249800E+6	3.56999589E+1	0.00000000E+0	0.00000000E+0	9.80000000E-13	6.25700000E-11	4.80000000E+1	8.93256175E-5
2.71789000E+6	3.57999007E+1	0.00000000E+0	0.00000000E+0	9.80000000E-13	6.09200000E-11	3.50000000E+1	8.95461696E-5
2.72324400E+6	3.58991400E+1	0.00000000E+0	0.00000000E+0	1.00000000E-12	5.93600000E-11	3.20000000E+1	8.95852106E-5
2.72867600E+6	3.60010490E+1	0.00000000E+0	0.00000000E+0	1.00000000E-12	5.77200000E-11	4.50000000E+1	8.98818511E-5
2.73407600E+6	3.60997043E+1	0.00000000E+0	0.00000000E+0	9.80000000E-13	5.63700000E-11	4.80000000E+1	8.94206452E-5
2.73949800E+6	3.62000796E+1	0.00000000E+0	0.00000000E+0	9.30000000E-13	5.49800000E-11	4.30000000E+1	8.94118743E-5
2.74491400E+6	3.63000456E+1	0.00000000E+0	0.00000000E+0	9.20000000E-13	5.36500000E-11	4.40000000E+1	8.93205183E-5
2.75033900E+6	3.64000239E+1	0.00000000E+0	0.00000000E+0	8.40000000E-13	5.24300000E-11	4.60000000E+1	8.92380702E-5
2.75576300E+6	3.65000101E+1	0.00000000E+0	0.00000000E+0	8.50000000E-13	5.12200000E-11	5.00000000E+1	8.93085735E-5
2.76120700E+6	3.65999999E+1	0.00000000E+0	0.00000000E+0	7.30000000E-13	5.00600000E-11	3.80000000E+1	8.93400686E-5
2.76663500E+6	3.67000987E+1	0.00000000E+0	0.00000000E+0	7.60000000E-13	4.89700000E-11	3.10000000E+1	8.95579743E-5
2.77205300E+6	3.67999720E+1	0.00000000E+0	0.00000000E+0	7.90000000E-13	4.79400000E-11	3.50000000E+1	8.94386696E-5
2.77748100E+6	3.68999452E+1	0.00000000E+0	0.00000000E+0	7.50000000E-13	4.68600000E-11	4.10000000E+1	8.96161752E-5
2.78291500E+6	3.70002394E+1	0.00000000E+0	0.00000000E+0	7.10000000E-13	4.58800000E-11	3.70000000E+1	8.90573876E-5
2.78831900E+6	3.70998431E+1	0.00000000E+0	0.00000000E+0	7.40000000E-13	4.49100000E-11	2.60000000E+1	8.94247728E-5
2.79362500E+6	3.71993061E+1	0.00000000E+0	0.00000000E+0	6.80000000E-13	4.40100000E-11	4.60000000E+1	8.92475711E-5
2.79893400E+6	3.73000996E+1	0.00000000E+0	0.00000000E+0	6.20000000E-13	4.30900000E-11	3.80000000E+1	8.92582672E-5
2.80436100E+6	3.74004121E+1	0.00000000E+0	0.00000000E+0	6.80000000E-13	4.22300000E-11	3.40000000E+1	8.94623267E-5
2.80977000E+6	3.75000015E+1	0.00000000E+0	0.00000000E+0	7.00000000E-13	4.13200000E-11	3.30000000E+1	8.93150585E-5
2.81516600E+6	3.75998917E+1	0.00000000E+0	0.00000000E+0	6.30000000E-13	4.04900000E-11	4.00000000E+1	8.95978379E-5
2.82054800E+6	3.76999671E+1	0.00000000E+0	0.00000000E+0	5.70000000E-13	3.96300000E-11	3.70000000E+1	8.92482775E-5
2.82597800E+6	3.77998761E+1	0.00000000E+0	0.00000000E+0	5.80000000E-13	3.88500000E-11	3.60000000E+1	8.93172847E-5
2.83141900E+6	3.78999639E+1	0.00000000E+0	0.00000000E+0	5.30000000E-13	3.80200000E-11	2.70000000E+1	8.93680292E-5
2.83685400E+6	3.79999932E+1	0.00000000E+0	0.00000000E+0	5.20000000E-13	3.72500000E-11	3.00000000E+1	8.93469857E-5
2.84228100E+6	3.80999588E+1	0.00000000E+0	0.00000000E+0	5.60000000E-13	3.64500000E-11	4.00000000E+1	8.91752647E-5
2.84756600E+6	3.81993786E+1	0.00000000E+0	0.00000000E+0	5.90000000E-13	3.56700000E-11	2.70000000E+1	8.91278492E-5
2.85283000E+6	3.83001577E+1	0.00000000E+0	0.00000000E+0	4.70000000E-13	3.49200000E-11	3.00000000E+1	8.94633787E-5
2.85809800E+6	3.84001445E+1	0.00000000E+0	0.00000000E+0	4.10000000E-13	3.43300000E-11	3.30000000E+1	8.94020128E-5
2.86343500E+6	3.85001702E+1	0.00000000E+0	0.00000000E+0	4.00000000E-13	3.36100000E-11	2.90000000E+1	8.92994242E-5
2.86874800E+6	3.85996227E+1	0.00000000E+0	0.00000000E+0	4.80000000E-13	3.28800000E-11	2.50000000E+1	8.98010540E-5
2.87405200E+6	3.86999574E+1	0.00000000E+0	0.00000000E+0	5.10000000E-13	3.21200000E-11	2.70000000E+1	8.98839193E-5
2.87933200E+6	3.88000770E+1	0.00000000E+0	0.00000000E+0	4.60000000E-13	3.14600000E-11	3.00000000E+1	8.94036280E-5
2.88471300E+6	3.89005923E+1	0.00000000E+0	0.00000000E+0	4.30000000E-13	3.07700000E-11	2.60000000E+1	8.94073205E-5
2.88998600E+6	3.89996412E+1	0.00000000E+0	0.00000000E+0	4.10000000E-13	3.00700000E-11	3.30000000E+1	8.92766582E-5
2.89527600E+6	3.90996954E+1	0.00000000E+0	0.00000000E+0	3.80000000E-13	2.94400000E-11	2.50000000E+1	8.95157235E-5
2.90055200E+6	3.91997621E+1	0.00000000E+0	0.00000000E+0	3.50000000E-13	2.88300000E-11	2.80000000E+1	8.93798219E-5
2.90583200E+6	3.93000899E+1	0.00000000E+0	0.00000000E+0	3.50000000E-13	2.81700000E-11	2.30000000E+1	8.95971643E-5
2.91111600E+6	3.94001714E+1	0.00000000E+0	0.00000000E+0	4.60000000E-13	2.75200000E-11	2.60000000E+1	8.95112174E-5
2.91652300E+6	3.95005090E+1	0.00000000E+0	0.00000000E+0	2.80000000E-13	2.68900000E-11	2.30000000E+1	8.97103595E-5
2.92183000E+6	3.95998213E+1	0.00000000E+0	0.00000000E+0	3.40000000E-13	2.62700000E-11	2.30000000E+1	8.97526103E-5
2.92722100E+6	3.97002781E+1	0.00000000E+0	0.00000000E+0	3.40000000E-13	2.57400000E-11	2.70000000E+1	8.91382353E-5
2.93247900E+6	3.97991749E+1	0.00000000E+0	0.00000000E+0	2.80000000E-13	2.51200000E-11	2.00000000E+1	8.92155038E-5
2.93775000E+6	3.98998665E+1	0.00000000E+0	0.00000000E+0	4.10000000E-13	2.45500000E-11	3.20000000E+1	8.95015823E-5
2.94305900E+6	4.00008074E+1	0.00000000E+0	0.00000000E+0	3.50000000E-13	2.39400000E-11	2.20000000E+1	8.95938891E-5
2.94905500E+6	4.00996323E+1	0.00000000E+0	0.00000000E+0	3.30000000E-13	2.33800000E-11	2.60000000E+1	9.00278378E-5
2.95435900E+6	4.02003992E+1	0.00000000E+0	0.00000000E+0	2.70000000E-13	2.28800000E-11	2.40000000E+1	8.92892765E-5
2.95965000E+6	4.02992851E+1	0.00000000E+0	0.00000000E+0	2.50000000E-13	2.23500000E-11	1.60000000E+1	8.91519951E-5
2.96492700E+6	4.04005257E+1	0.00000000E+0	0.00000000E+0	2.50000000E-13	2.18000000E-11	2.40000000E+1	8.95908582E-5
2.97021000E+6	4.04994616E+1	0.00000000E+0	0.00000000E+0	2.70000000E-13	2.13400000E-11	2.20000000E+1	8.91594546E-5
2.97550000E+6	4.06003649E+1	0.00000000E+0	0.00000000E+0	2.30000000E-13	2.08200000E-11	1.70000000E+1	8.93300252E-5
2.98079700E+6	4.06997417E+1	0.00000000E+0	0.00000000E+0	1.80000000E-13	2.03400000E-11	1.60000000E+1	8.93369006E-5
2.98610700E+6	4.08000143E+1	0.00000000E+0	0.00000000E+0	2.60000000E-13	1.98600000E-11	2.00000000E+1	8.91781466E-5
2.99139100E+6	4.08998254E+1	0.00000000E+0	0.00000000E+0	2.20000000E-13	1.94200000E-11	2.60000000E+1	8.94114601E-5
2.99666500E+6	4.10001260E+1	0.00000000E+0	0.00000000E+0	2.20000000E-13	1.90300000E-11	2.10000000E+1	8.93855917E-5
3.00195000E+6	4.10999536E+1	0.00000000E+0	0.00000000E+0	2.40000000E-13	1.85800000E-11	1.30000000E+1	8.92442035E-5
3.00723400E+6	4.12002685E+1	0.00000000E+0	0.00000000E+0	1.70000000E-13	1.81800000E-11	1.30000000E+1	8.94387769E-5
3.01254000E+6	4.12996804E+1	0.00000000E+0	0.00000000E+0	2.50000000E-13	1.77800000E-11	1.20000000E+1	8.91183542E-5
3.01784300E+6	4.13997134E+1	0.00000000E+0	0.00000000E+0	2.20000000E-13	1.74200000E-11	1.10000000E+1	8.93255817E-5
3.02316500E+6	4.14999506E+1	0.00000000E+0	0.00000000E+0	1.60000000E-13	1.70200000E-11	1.80000000E+1	8.95015615E-5
3.02850400E+6	4.16003916E+1	0.00000000E+0	0.00000000E+0	2.30000000E-13	1.67200000E-11	1.10000000E+1	8.91018467E-5
3.03378700E+6	4.17000411E+1	0.00000000E+0	0.00000000E+0	1.90000000E-13	1.63100000E-11	2.30000000E+1	8.91155886E-5
3.03908800E+6	4.17997408E+1	0.00000000E+0	0.00000000E+0	1.40000000E-13	1.59900000E-11	1.30000000E+1	8.92706173E-5
3.04439500E+6	4.19000619E+1	0.00000000E+0	0.00000000E+0	1.70000000E-13	1.57400000E-11	2.10000000E+1	8.94151824E-5
3.04973700E+6	4.19998567E+1	0.00000000E+0	0.00000000E+0	1.60000000E-13	1.54100000E-11	1.80000000E+1	8.94436496E-5
3.05501800E+6	4.20998383E+1	0.00000000E+0	0.00000000E+0	1.70000000E-13	1.50600000E-11	1.50000000E+1	8.93171626E-5
3.06032200E+6	4.21998605E+1	0.00000000E+0	0.00000000E+0	1.80000000E-13	1.48100000E-11	1.40000000E+1	8.94045042E-5
3.06561700E+6	4.23000668E+1	0.00000000E+0	0.00000000E+0	4.00000000E-14	1.44800000E-11	1.40000000E+1	8.92308878E-5
3.07092200E+6	4.24003093E+1	0.00000000E+0	0.00000000E+0	1.50000000E-13	1.42700000E-11	1.70000000E+1	8.93541919E-5
3.07620000E+6	4.24996997E+1	0.00000000E+0	0.00000000E+0	1.70000000E-13	1.40700000E-11	1.60000000E+1	8.95934033E-5
3.08150600E+6	4.26000021E+1	0.00000000E+0	0.00000000E+0	5.00000000E-14	1.37800000E-11	1.80000000E+1	8.97715646E-5
3.08681500E+6	4.26997361E+1	0.00000000E+0	0.00000000E+0	1.70000000E-13	1.36100000E-11	1.60000000E+1	8.94132453E-5
3.09210400E+6	4.28000878E+1	0.00000000E+0	0.00000000E+0	8.00000000E-14	1.33400000E-11	9.00000000E+0	8.94282537E-5
3.09740600E+6	4.29000101E+1	0.00000000E+0	0.00000000E+0	7.00000000E-14	1.31400000E-11	1.70000000E+1	8.97521245E-5
3.10271900E+6	4.29997956E+1	0.00000000E+0	0.00000000E+0	1.60000000E-13	1.29300000E-11	1.30000000E+1	8.96793085E-5
3.10803200E+6	4.31003501E+1	0.00000000E+0	0.00000000E+0	1.10000000E-13	1.26800000E-11	1.70000000E+1	8.94277173E-5
3.11331800E+6	4.31996984E+1	0.00000000E+0	0.00000000E+0	1.50000000E-13	1.25200000E-11	6.00000000E+0	8.97906261E-5
3.11861800E+6	4.33002718E+1	0.00000000E+0	0.00000000E+0	1.20000000E-13	1.23200000E-11	1.10000000E+1	8.92144131E-5
3.12390200E+6	4.33997755E+1	0.00000000E+0	0.00000000E+0	1.30000000E-13	1.20900000E-11	1.00000000E+1	8.96243441E-5
3.12918400E+6	4.35002013E+1	0.00000000E+0	0.00000000E+0	1.50000000E-13	1.18900000E-11	1.20000000E+1	8.94673246E-5
3.13447800E+6	4.35996951E+1	0.00000000E+0	0.00000000E+0	1.10000000E-13	1.16700000E-11	9.00000000E+0	8.93063920E-5
3.13976900E+6	4.36999570E+1	0.00000000E+0	0.00000000E+0	1.30000000E-13	1.15200000E-11	1.60000000E+1	8.96188426E-5
3.14504200E+6	4.37998974E+1	0.00000000E+0	0.00000000E+0	1.30000000E-13	1.12900000E-11	1.00000000E+1	8.97831011E-5
3.15032500E+6	4.38996660E+1	0.00000000E+0	0.00000000E+0	5.00000000E-14	1.10600000E-11	5.00000000E+0	8.94224661E-5
3.15561400E+6	4.40002065E+1	0.00000000E+0	0.00000000E+0	1.20000000E-13	1.08700000E-11	1.10000000E+1	8.94995498E-5
3.16088700E+6	4.40997784E+1	0.00000000E+0	0.00000000E+0	-0.00000000E+0	1.06300000E-11	8.00000000E+0	8.98890215E-5
3.16625800E+6	4.41999616E+1	0.00000000E+0	0.00000000E+0	1.00000000E-13	1.04900000E-11	1.00000000E+1	8.93289732E-5
3.17156500E+6	4.43002803E+1	0.00000000E+0	0.00000000E+0	0.00000000E+0	1.02800000E-11	3.00000000E+0	8.97481608E-5
3.17687500E+6	4.43997667E+1	0.00000000E+0	0.00000000E+0	5.00000000E-14	1.00900000E-11	8.00000000E+0	8.96119642E-5
3.18217100E+6	4.44997009E+1	0.00000000E+0	0.00000000E+0	6.00000000E-14	9.83000000E-12	1.50000000E+1	8.93135207E-5
3.18744100E+6	4.46000860E+1	0.00000000E+0	0.00000000E+0	1.20000000E-13	9.67000000E-12	8.00000000E+0	8.93292772E-5
3.19272100E+6	4.46999455E+1	0.00000000E+0	0.00000000E+0	1.00000000E-13	9.44000000E-12	1.00000000E+1	8.94819545E-5
3.19803200E+6	4.47999251E+1	0.00000000E+0	0.00000000E+0	3.00000000E-14	9.26000000E-12	8.00000000E+0	8.93264847E-5
3.20336400E+6	4.49000235E+1	0.00000000E+0	0.00000000E+0	8.00000000E-14	9.02000000E-12	9.00000000E+0	8.94749569E-5
3.20865400E+6	4.50000737E+1	0.00000000E+0	0.00000000E+0	-0.00000000E+0	8.78000000E-12	6.00000000E+0	8.91906308E-5
