G:\BEAR_storage\User_Experiments\20220317_arneodo\file(1)_Region 2__0051.txt
Ring Energy (GeV): 2
Lifetime (hours): 15.3036
Scan beginning: 3/19/2022	10:55:12 AM
Ring current (mA): 308.71
Source position: x (mm): -0.004 x' (mrad): 0.002 y (mm): 0.001 y' (mrad): 0.004
Scan end: 3/19/2022	10:59:25 AM
Ring current (mA): 308.53
Source position: x (mm): -0.003 x' (mrad): 0.002 y (mm): 0.004 y' (mrad): 0.005

SCAN TYPE: PHOTON ENERGY VS VAR_1 VS VAR_2

FILE INFO: FILE INFO:

SCAN PARAMETERS
waiting time (ms): 1000
Number of scans: 1
Current scan number: 1
DARK OFF 
PREDARK OFF 

SCAN PARAMETERS
Regions configuration: 
number of regions: 7
Mirror grating scan: on
Timed acquisition: off
Region 1:
Initial energy (eV): 40.000000
Final energy (eV): 72.000000
Delta energy (eV): 1.000000
Deviation angle choice: Higher order rejection
Deviation angle (°): NaN
Al filter
G1200 channel
range keithley B 20 nA
range keithley C 2 uA
range keithley A 20 nA
Var_1: PsiC 0.000000
Var_2: PhiM0.000000
Bias CEM (V): 0.000000
Bias Keithley B (V): -30.000000
Name region: 
Region 2:
Initial energy (eV): 70.000000
Final energy (eV): 102.000000
Delta energy (eV): 1.000000
Deviation angle choice: Higher order rejection
Deviation angle (°): NaN
Si filter
G1200 channel
range keithley B 20 nA
range keithley C 2 uA
range keithley A 20 nA
Var_1: PsiC 0.000000
Var_2: PhiM0.000000
Bias CEM (V): 0.000000
Bias Keithley B (V): -30.000000
Name region: 
Region 3:
Initial energy (eV): 98.000000
Final energy (eV): 260.000000
Delta energy (eV): 1.000000
Deviation angle choice: Higher order rejection
Deviation angle (°): NaN
Full Beam
G1200 channel
range keithley B 20 nA
range keithley C 20 uA
range keithley A 200 nA
Var_1: PsiC 0.000000
Var_2: PhiM0.000000
Bias CEM (V): 0.000000
Bias Keithley B (V): -30.000000
Name region: 
Region 4:
Initial energy (eV): 255.000000
Final energy (eV): 320.000000
Delta energy (eV): 1.000000
Deviation angle choice: Higher order rejection
Deviation angle (°): NaN
filter Ag 0.6 um
G1200 channel
range keithley B 200 pA
range keithley C 2 uA
range keithley A 200 pA
Var_1: PsiC 0.000000
Var_2: PhiM0.000000
Bias CEM (V): 0.000000
Bias Keithley B (V): -30.000000
Name region: 
Region 5:
Initial energy (eV): 255.000000
Final energy (eV): 320.000000
Delta energy (eV): 1.000000
Deviation angle choice: Higher order rejection
Deviation angle (°): NaN
Full Beam
G1200 channel
range keithley B 200 pA
range keithley C 2 uA
range keithley A 20 nA
Var_1: PsiC 0.000000
Var_2: PhiM0.000000
Bias CEM (V): 0.000000
Bias Keithley B (V): -30.000000
Name region: 
Region 6:
Initial energy (eV): 315.000000
Final energy (eV): 1200.000000
Delta energy (eV): 5.000000
Deviation angle choice: Higher order rejection
Deviation angle (°): NaN
Full Beam
G1200 channel
range keithley B 20 nA
range keithley C 2 uA
range keithley A 20 nA
Var_1: PsiC 0.000000
Var_2: PhiM0.000000
Bias CEM (V): 0.000000
Bias Keithley B (V): -30.000000
Name region: 
Region 7:
Initial energy (eV): 1190.000000
Final energy (eV): 1500.000000
Delta energy (eV): 5.000000
Deviation angle choice: Higher order rejection
Deviation angle (°): NaN
filter Ag 0.6 um
G1200 channel
range keithley B 200 pA
range keithley C 2 uA
range keithley A 200 pA
Var_1: PsiC 0.000000
Var_2: PhiM0.000000
Bias CEM (V): 0.000000
Bias Keithley B (V): -30.000000
Name region: 

BEAR MONOCHROMATOR CONFIGURATION: 
Current Grating Position:     -30363.40
Current Mirror Position: 105172.2
Current Grating: G1200
P2 phiz position:  0.0000
Mono axis position: 25.0000
Current Photon Energy (eV): 272.995
Current Deviation Angle: 162.460
Vertical Exit Slits (um): 100.000
Exit slit y axis position: 1.3625
Horizontal Exit Slits (um):  889.156
Exit slit z axis position: 1.9229
Mitutoyo position (mm): 

Dose on sample (mJ/cm^2): NaN

ENERGY CALIBRATION:
offset grating G1200: yes
Delta 0 order G1200:  -800.0
offset grating G1800: not
Delta 0 order G1800:  0.0
offset grating GNIM: not
Delta 0 order GNIM:  0.0
ZERO ORDER POSITIONS:
Grating G1200: Mirror position:  4938.0
Grating position: -105355.0
Grating G1800: 
Mirror position:  4938.0
Grating position: -106345.0
Grating GNIM: 
Mirror position:  10000.0
Grating position: 227300.0

Initial filter: Full Beam

EXPERIMENTAL CHAMBER CONFIGURATION: 
PsiC (deg):   -0.000186
Phi Analyzer (degrees): 89.992308
Theta Manipulator (degrees): -44.000040
Theta Analyzer (degrees): -135.001468
PhiM (degrees): -0.004103
XM (mm): 0.000713
YM (mm): 19.932987
ZM (mm): (Warning: for kinetic energy scans, 
this parameter is given in the scan settings) 
-6.601438
TiltM (°): 0.000138

ELECTRON ANALYZER CONFIGURATION: 
Current Kinetik energy (eV): 35.0
Mode: DE = COST
Pass Energy (eV):  50.000
CEM: ON
Bias Front-Back CEM (V): 3499.561
Bias Back-Collector CEM (V): 100.874
Bias Retard-Front CEM: 100.087COIL VALUES
Ix (amps):2.820
Iy (amps): 6.789
Iz (amps): 37.337

POLARIZATION SELECTOR CONFIGURATION:
Psi1 (rad): -0.001665535
Psi2 (rad): 0.001417093
Z min position (mm): 46.599650
DZ position (mm): 18.599100
Zmin 0 (mm): 66.500000
DZ0 (mm): 53.000000

BEAM SELECTOR CONFIGURATION:
Zmin position (mm): NaN
DZ position (mm): NaN
Y+ position (mm): NaN
Y- position (mm): NaN

CHANNEL ELECTRON MULTIPLIER CONFIGURATION:
CEM configured: OFF
Bias CEM: 0.000000

FLUORESCENCE DETECTOR CONFIGURATION:
Not configured

LUMINESCENCE MONOCHROMATOR CONFIGURATION:
Optical fiber position (mm): 0.000000
Optical fiber Switch inside: OFF
Optical fiber Switch outside: ON
Monochromator wavelength (A): 0.000000
Limit Switches: ON

I0 MONITOR PARAMETERS:
I0 detector position(mm): -0.000000E+0
Lower switch: OFF
Upper switch: OFF
Valve status:open

PRESSURE PARAMETERS:
Monitor chamber pressure (mbar): 8.879e-10
Experimental chamber pressure -ION GAUGE-(mbar): 0.000000E+0

XMCD PARAMETERS:
Xmcd OFF
Xmcd Direction -
Xmcd current (A): 0.000000

Gated scan off

Instrument 1: AMMETER KEITHLEY 6517A B
Measure type: Current
range type: set range value
range value (ampere):  200 pA
Integration time:  set NPLC value
NPLC value: 10.000
Digital filter count: 2
SAMPLE BIAS (V): -30.000
Vsource: ON
Output Voltage value: 30.000
Vsource range: 1000 V

Range Keithley B changed to 20 nA

Range Keithley B changed to 200 pA

Range Keithley B changed to 20 nA

Range Keithley B changed to 200 pA

Range Keithley B changed to 20 nA

Range Keithley B changed to 200 pA

Range Keithley B changed to 20 nA

Range Keithley B changed to 200 nA

Range Keithley B changed to 200 pA

Range Keithley B changed to 20 nA

Range Keithley B changed to 200 pA

Range Keithley B changed to 20 nA

Range Keithley B changed to 200 pA

Range Keithley B changed to 20 nA

Range Keithley B changed to 200 pA

Range Keithley B changed to 20 nA

Range Keithley B changed to 200 pA

Range Keithley B changed to 20 nA

Range Keithley B changed to 200 pA

Range Keithley B changed to 20 nA

Range Keithley B changed to 200 pA

Range Keithley B changed to 20 nA

Range Keithley B changed to 200 pA

Range Keithley B changed to 20 nA

Range Keithley B changed to 200 pA

Range Keithley B changed to 20 nA

Range Keithley B changed to 200 pA

Range Keithley B changed to 20 nA

Range Keithley B changed to 200 pA

Range Keithley B changed to 20 nA

Range Keithley B changed to 200 pA

Range Keithley B changed to 20 nA

Range Keithley B changed to 200 pA

Range Keithley B changed to 20 nA

Instrument 2: AMMETER KEITHLEY 6517A A
Measure type: Current
range type: set range value
range value (ampere):  200 nA
Integration time:  set NPLC value
NPLC value: 10.000
Digital filter count: 2
Vsource: OFF
Output Voltage value: -0.000
Vsource range: 100 V
Trigger source: bus

Range Keithley A changed to 20 nA

Range Keithley A changed to 200 nA

Range Keithley A changed to 200 pA

Range Keithley A changed to 20 nA

Range Keithley A changed to 200 pA

Range Keithley A changed to 20 nA

Range Keithley A changed to 200 nA

Range Keithley A changed to 200 pA

Range Keithley A changed to 20 nA

Range Keithley A changed to 200 pA

Range Keithley A changed to 20 nA

Range Keithley A changed to 200 nA

Range Keithley A changed to 200 pA

Range Keithley A changed to 20 nA

Range Keithley A changed to 200 pA

Range Keithley A changed to 20 nA

Range Keithley A changed to 200 pA

Range Keithley A changed to 20 nA

Range Keithley A changed to 200 pA

Range Keithley A changed to 20 nA

Range Keithley A changed to 200 pA

Range Keithley A changed to 20 nA

Range Keithley A changed to 200 nA

Range Keithley A changed to 200 pA

Range Keithley A changed to 20 nA

Range Keithley A changed to 200 pA

Range Keithley A changed to 20 nA

Range Keithley A changed to 200 nA

Range Keithley A changed to 200 pA

Range Keithley A changed to 20 nA

Range Keithley A changed to 200 nA

Range Keithley A changed to 200 pA

Range Keithley A changed to 20 nA

Range Keithley A changed to 200 pA

Range Keithley A changed to 20 nA

Range Keithley A changed to 200 pA

Range Keithley A changed to 20 nA

Range Keithley A changed to 200 nA

Range Keithley A changed to 200 pA

Range Keithley A changed to 20 nA

Range Keithley A changed to 200 pA

Range Keithley A changed to 20 nA

Range Keithley A changed to 200 nA

Range Keithley A changed to 20 nA

Range Keithley A changed to 200 nA

Range Keithley A changed to 200 pA

Range Keithley A changed to 20 nA

Range Keithley A changed to 200 nA

Range Keithley A changed to 2 uA

Range Keithley A changed to 20 nA

Range Keithley A changed to 200 nA

Range Keithley A changed to 2 uA

Range Keithley A changed to 20 nA

Range Keithley A changed to 200 nA

Range Keithley A changed to 200 pA

Range Keithley A changed to 2 uA

Range Keithley A changed to 20 nA

Range Keithley A changed to 200 nA

Range Keithley A changed to 200 pA

Range Keithley A changed to 20 nA

Range Keithley A changed to 2 uA

Range Keithley A changed to 20 nA

Range Keithley A changed to 200 nA

Range Keithley A changed to 20 nA

Range Keithley A changed to 200 nA

Range Keithley A changed to 200 pA

Range Keithley A changed to 2 uA

Range Keithley A changed to 20 nA

Range Keithley A changed to 200 nA

Range Keithley A changed to 20 nA

Range Keithley A changed to 200 nA

Range Keithley A changed to 200 pA

Range Keithley A changed to 20 nA

Range Keithley A changed to 200 nA

Range Keithley A changed to 20 nA

Range Keithley A changed to 200 nA

Range Keithley A changed to 200 pA

Range Keithley A changed to 20 nA

Range Keithley A changed to 200 nA

Instrument 3: AMMETER KEITHLEY 6517A C 
Measure type: Current
range type: set range value
range value (ampere):  2 uA
Integration time:  set NPLC value
NPLC value: 10.000
Digital filter count: 2
Vsource: OFF
Output Voltage value: -0.000
Vsource range: 100 V
Trigger source: bus


Range Keithley C changed to 20 uA


Range Keithley C changed to 2 uA


Range Keithley C changed to 200 uA


Range Keithley C changed to 2 uA


Range Keithley C changed to 20 uA


Range Keithley C changed to 200 uA


Range Keithley C changed to 2 uA


Range Keithley C changed to 20 uA


Range Keithley C changed to 2 uA


Range Keithley C changed to 20 uA


Range Keithley C changed to 200 uA


Range Keithley C changed to 2 uA


Range Keithley C changed to 20 uA


Range Keithley C changed to 2 uA


Range Keithley C changed to 20 uA


Range Keithley C changed to 2 uA


Range Keithley C changed to 20 uA


________________________________________________________________________________

RelativeTime (msec)	Photon Energy	Var_1	Var_2	INSTR_1_Sample with Bias _(ampere ) 	INSTR_2_Monitor IM_(ampere)  	INSTR_3_Diode A3_(ampere)	I_BPM_sum (Amps)	
________________________________________________________________________________

1.37937000E+5	7.00004925E+1	0.00000000E+0	0.00000000E+0	-3.80000000E-13	2.45750000E-10	1.08503000E-7	8.95991164E-5
1.42155000E+5	7.09992392E+1	0.00000000E+0	0.00000000E+0	-3.40000000E-13	2.63840000E-10	1.17612000E-7	8.90408682E-5
1.45632000E+5	7.19999196E+1	0.00000000E+0	0.00000000E+0	-3.70000000E-13	2.28660000E-10	1.03188000E-7	8.92715322E-5
1.49073000E+5	7.30000944E+1	0.00000000E+0	0.00000000E+0	-2.60000000E-13	2.92410000E-10	1.34589000E-7	8.91216295E-5
1.52401000E+5	7.39995533E+1	0.00000000E+0	0.00000000E+0	-5.60000000E-13	3.32290000E-10	1.55183000E-7	8.93376606E-5
1.55821000E+5	7.50002406E+1	0.00000000E+0	0.00000000E+0	-2.30000000E-13	3.32250000E-10	1.56507000E-7	8.93416750E-5
1.59179000E+5	7.59998981E+1	0.00000000E+0	0.00000000E+0	-4.90000000E-13	3.84450000E-10	1.84375000E-7	8.92605530E-5
1.62501000E+5	7.70001504E+1	0.00000000E+0	0.00000000E+0	-4.20000000E-13	4.31090000E-10	2.09266000E-7	8.92920392E-5
1.65793000E+5	7.79998590E+1	0.00000000E+0	0.00000000E+0	-3.40000000E-13	4.67900000E-10	2.29849000E-7	8.92951714E-5
1.69108000E+5	7.90001563E+1	0.00000000E+0	0.00000000E+0	-2.20000000E-13	5.08760000E-10	2.52968000E-7	8.95786660E-5
1.72425000E+5	7.99998243E+1	0.00000000E+0	0.00000000E+0	-6.90000000E-13	5.50260000E-10	2.76595000E-7	8.98122448E-5
1.75757000E+5	8.10000267E+1	0.00000000E+0	0.00000000E+0	-5.40000000E-13	5.90820000E-10	3.00112000E-7	8.91816156E-5
1.79075000E+5	8.20001080E+1	0.00000000E+0	0.00000000E+0	-4.60000000E-13	6.30640000E-10	3.23781000E-7	8.93086212E-5
1.82277000E+5	8.29993932E+1	0.00000000E+0	0.00000000E+0	-3.60000000E-13	6.76760000E-10	3.51078000E-7	8.91349332E-5
1.85586000E+5	8.40003859E+1	0.00000000E+0	0.00000000E+0	-4.60000000E-13	7.29100000E-10	3.82088000E-7	8.94097584E-5
1.88745000E+5	8.49996136E+1	0.00000000E+0	0.00000000E+0	-3.20000000E-13	7.83050000E-10	4.14207000E-7	8.92398255E-5
1.91928000E+5	8.60000127E+1	0.00000000E+0	0.00000000E+0	-3.70000000E-13	8.39270000E-10	4.47896000E-7	8.95374792E-5
1.95117000E+5	8.69999222E+1	0.00000000E+0	0.00000000E+0	-9.00000000E-14	8.99200000E-10	4.84002000E-7	8.90870022E-5
1.99075000E+5	8.80000031E+1	0.00000000E+0	0.00000000E+0	-5.20000000E-13	9.58730000E-10	5.20135000E-7	8.92866480E-5
2.02270000E+5	8.90000805E+1	0.00000000E+0	0.00000000E+0	-2.80000000E-13	1.02127000E-9	5.57965000E-7	8.89410602E-5
2.05475000E+5	9.00000001E+1	0.00000000E+0	0.00000000E+0	-2.60000000E-13	1.09736000E-9	6.03901000E-7	8.92168688E-5
2.08718000E+5	9.09996292E+1	0.00000000E+0	0.00000000E+0	-4.40000000E-13	1.18023000E-9	6.54055000E-7	8.93095034E-5
2.11922000E+5	9.20000261E+1	0.00000000E+0	0.00000000E+0	-3.00000000E-14	1.26059000E-9	7.02860000E-7	8.91779410E-5
2.15146000E+5	9.30003309E+1	0.00000000E+0	0.00000000E+0	-3.50000000E-13	1.34180000E-9	7.52804000E-7	8.91827988E-5
2.18344000E+5	9.39998123E+1	0.00000000E+0	0.00000000E+0	-5.70000000E-13	1.43489000E-9	8.09576000E-7	8.94471901E-5
2.21436000E+5	9.49991311E+1	0.00000000E+0	0.00000000E+0	-7.10000000E-13	1.52696000E-9	8.65781000E-7	8.88741212E-5
2.24631000E+5	9.60008532E+1	0.00000000E+0	0.00000000E+0	-4.10000000E-13	1.60684000E-9	9.15127000E-7	8.96411585E-5
2.27863000E+5	9.70000022E+1	0.00000000E+0	0.00000000E+0	-4.80000000E-13	1.68321000E-9	9.62621000E-7	8.89233040E-5
2.30952000E+5	9.79997244E+1	0.00000000E+0	0.00000000E+0	-4.60000000E-13	1.76083000E-9	1.01096400E-6	8.92114299E-5
2.34030000E+5	9.90001784E+1	0.00000000E+0	0.00000000E+0	-2.00000000E-13	1.83209000E-9	1.05559200E-6	8.91719477E-5
2.37084000E+5	9.99997864E+1	0.00000000E+0	0.00000000E+0	-2.10000000E-13	1.88301000E-9	1.08837500E-6	8.91222017E-5
2.40124000E+5	1.00999480E+2	0.00000000E+0	0.00000000E+0	-2.20000000E-13	1.76832000E-9	1.02607100E-6	8.91866611E-5
2.43192000E+5	1.02000088E+2	0.00000000E+0	0.00000000E+0	-4.30000000E-13	2.60400000E-11	1.67540000E-8	8.93169897E-5
