G:\BEAR_storage\User_Experiments\20220317_arneodo\file(1)_Region 6__0052.txt
Ring Energy (GeV): 2
Lifetime (hours): 15.3747
Scan beginning: 3/19/2022	12:08:34 PM
Ring current (mA): 308.5
Source position: x (mm): -0.004 x' (mrad): 0.001 y (mm): 0.004 y' (mrad): 0.007
Scan end: 3/19/2022	12:22:04 PM
Ring current (mA): 308.9
Source position: x (mm): -0.004 x' (mrad): 0.002 y (mm): 0.002 y' (mrad): 0.007

SCAN TYPE: PHOTON ENERGY VS VAR_1 VS VAR_2

FILE INFO: FILE INFO:

SCAN PARAMETERS
waiting time (ms): 1000
Number of scans: 1
Current scan number: 1
DARK OFF 
PREDARK OFF 

SCAN PARAMETERS
Regions configuration: 
number of regions: 7
Mirror grating scan: on
Timed acquisition: off
Region 1:
Initial energy (eV): 3.000000
Final energy (eV): 4.500000
Delta energy (eV): 0.500000
Deviation angle choice: Degrees: 
Deviation angle (°): NaN
B270 window
GNIM channel
range keithley B 200 pA
range keithley C 2 uA
range keithley A 200 pA
Var_1: PsiC 0.000000
Var_2: PhiM0.000000
Bias CEM (V): 0.000000
Bias Keithley B (V): -30.000000
Name region: 
Region 2:
Initial energy (eV): 4.000000
Final energy (eV): 8.000000
Delta energy (eV): 0.500000
Deviation angle choice: Degrees: 
Deviation angle (°): NaN
SiO2 window
GNIM channel
range keithley B 200 pA
range keithley C 2 uA
range keithley A 200 pA
Var_1: PsiC 0.000000
Var_2: PhiM0.000000
Bias CEM (V): 0.000000
Bias Keithley B (V): -30.000000
Name region: 
Region 3:
Initial energy (eV): 7.000000
Final energy (eV): 12.000000
Delta energy (eV): 0.500000
Deviation angle choice: Degrees: 
Deviation angle (°): NaN
filter LiF window
GNIM channel
range keithley B 200 pA
range keithley C 2 uA
range keithley A 200 pA
Var_1: PsiC 0.000000
Var_2: PhiM0.000000
Bias CEM (V): 0.000000
Bias Keithley B (V): -30.000000
Name region: 
Region 4:
Initial energy (eV): 11.000000
Final energy (eV): 18.000000
Delta energy (eV): 0.500000
Deviation angle choice: Degrees: 
Deviation angle (°): NaN
In filter
GNIM channel
range keithley B 200 pA
range keithley C 2 uA
range keithley A 200 pA
Var_1: PsiC 0.000000
Var_2: PhiM0.000000
Bias CEM (V): 0.000000
Bias Keithley B (V): -30.000000
Name region: 
Region 5:
Initial energy (eV): 15.000000
Final energy (eV): 25.000000
Delta energy (eV): 0.500000
Deviation angle choice: Degrees: 
Deviation angle (°): NaN
Sn filter
GNIM channel
range keithley B 200 pA
range keithley C 2 uA
range keithley A 200 pA
Var_1: PsiC 0.000000
Var_2: PhiM0.000000
Bias CEM (V): 0.000000
Bias Keithley B (V): -30.000000
Name region: 
Region 6:
Initial energy (eV): 23.000000
Final energy (eV): 45.000000
Delta energy (eV): 0.500000
Deviation angle choice: Degrees: 
Deviation angle (°): NaN
Full Beam
GNIM channel
range keithley B 20 nA
range keithley C 2 uA
range keithley A 20 nA
Var_1: PsiC 0.000000
Var_2: PhiM0.000000
Bias CEM (V): 0.000000
Bias Keithley B (V): -30.000000
Name region: 
Region 7:
Initial energy (eV): 23.000000
Final energy (eV): 45.000000
Delta energy (eV): 0.500000
Deviation angle choice: Degrees: 
Deviation angle (°): NaN
Al filter
GNIM channel
range keithley B 20 nA
range keithley C 2 uA
range keithley A 20 nA
Var_1: PsiC 0.000000
Var_2: PhiM0.000000
Bias CEM (V): 0.000000
Bias Keithley B (V): -30.000000
Name region: 

BEAR MONOCHROMATOR CONFIGURATION: 
Current Grating Position:     -17509.20
Current Mirror Position: 10000.0
Current Grating: GNIM
P2 phiz position:  0.0664
Mono axis position: 73.5000
Current Photon Energy (eV): 5.000
Current Deviation Angle: 29.905
Vertical Exit Slits (um): 100.000
Exit slit y axis position: 1.3625
Horizontal Exit Slits (um):  889.156
Exit slit z axis position: 1.9229
Mitutoyo position (mm): 

Dose on sample (mJ/cm^2): NaN

ENERGY CALIBRATION:
offset grating G1200: yes
Delta 0 order G1200:  -800.0
offset grating G1800: not
Delta 0 order G1800:  0.0
offset grating GNIM: not
Delta 0 order GNIM:  0.0
ZERO ORDER POSITIONS:
Grating G1200: Mirror position:  4938.0
Grating position: -105355.0
Grating G1800: 
Mirror position:  4938.0
Grating position: -106345.0
Grating GNIM: 
Mirror position:  10000.0
Grating position: 227300.0

Initial filter: Ag filter 0.6 um

EXPERIMENTAL CHAMBER CONFIGURATION: 
PsiC (deg):   -0.000186
Phi Analyzer (degrees): 89.993255
Theta Manipulator (degrees): -44.000040
Theta Analyzer (degrees): -135.001450
PhiM (degrees): -0.004103
XM (mm): 0.000425
YM (mm): 19.932987
ZM (mm): (Warning: for kinetic energy scans, 
this parameter is given in the scan settings) 
-6.601438
TiltM (°): 0.000138

ELECTRON ANALYZER CONFIGURATION: 
Current Kinetik energy (eV): 35.0
Mode: DE = COST
Pass Energy (eV):  50.000
CEM: ON
Bias Front-Back CEM (V): 3499.561
Bias Back-Collector CEM (V): 100.874
Bias Retard-Front CEM: 100.087COIL VALUES
Ix (amps):2.820
Iy (amps): 6.789
Iz (amps): 37.337

POLARIZATION SELECTOR CONFIGURATION:
Psi1 (rad): -0.001665535
Psi2 (rad): 0.001417093
Z min position (mm): 46.599650
DZ position (mm): 18.599100
Zmin 0 (mm): 66.500000
DZ0 (mm): 53.000000

BEAM SELECTOR CONFIGURATION:
Zmin position (mm): NaN
DZ position (mm): NaN
Y+ position (mm): NaN
Y- position (mm): NaN

CHANNEL ELECTRON MULTIPLIER CONFIGURATION:
CEM configured: OFF
Bias CEM: 0.000000

FLUORESCENCE DETECTOR CONFIGURATION:
Not configured

LUMINESCENCE MONOCHROMATOR CONFIGURATION:
Optical fiber position (mm): 0.000000
Optical fiber Switch inside: OFF
Optical fiber Switch outside: ON
Monochromator wavelength (A): 0.000000
Limit Switches: ON

I0 MONITOR PARAMETERS:
I0 detector position(mm): -0.000000E+0
Lower switch: OFF
Upper switch: OFF
Valve status:open

PRESSURE PARAMETERS:
Monitor chamber pressure (mbar): 8.792e-10
Experimental chamber pressure -ION GAUGE-(mbar): 0.000000E+0

XMCD PARAMETERS:
Xmcd OFF
Xmcd Direction -
Xmcd current (A): 0.000000

Gated scan off

Instrument 1: AMMETER KEITHLEY 6517A B
Measure type: Current
range type: set range value
range value (ampere):  200 pA
Integration time:  set NPLC value
NPLC value: 10.000
Digital filter count: 2
SAMPLE BIAS (V): -30.000
Vsource: ON
Output Voltage value: 30.000
Vsource range: 1000 V

Range Keithley B changed to 20 nA

Range Keithley B changed to 200 pA

Range Keithley B changed to 20 nA

Range Keithley B changed to 200 pA

Range Keithley B changed to 20 nA

Range Keithley B changed to 200 pA

Range Keithley B changed to 20 nA

Range Keithley B changed to 200 nA

Range Keithley B changed to 200 pA

Range Keithley B changed to 20 nA

Range Keithley B changed to 200 pA

Range Keithley B changed to 20 nA

Range Keithley B changed to 200 pA

Range Keithley B changed to 20 nA

Range Keithley B changed to 200 pA

Range Keithley B changed to 20 nA

Range Keithley B changed to 200 pA

Range Keithley B changed to 20 nA

Range Keithley B changed to 200 pA

Range Keithley B changed to 20 nA

Range Keithley B changed to 200 pA

Range Keithley B changed to 20 nA

Range Keithley B changed to 200 pA

Range Keithley B changed to 20 nA

Range Keithley B changed to 200 pA

Range Keithley B changed to 20 nA

Range Keithley B changed to 200 pA

Range Keithley B changed to 20 nA

Range Keithley B changed to 200 pA

Range Keithley B changed to 20 nA

Range Keithley B changed to 200 pA

Range Keithley B changed to 20 nA

Range Keithley B changed to 200 pA

Range Keithley B changed to 20 nA

Range Keithley B changed to 200 pA

Range Keithley B changed to 20 nA

Range Keithley B changed to 200 pA

Range Keithley B changed to 20 nA

Instrument 2: AMMETER KEITHLEY 6517A A
Measure type: Current
range type: set range value
range value (ampere):  200 nA
Integration time:  set NPLC value
NPLC value: 10.000
Digital filter count: 2
Vsource: OFF
Output Voltage value: -0.000
Vsource range: 100 V
Trigger source: bus

Range Keithley A changed to 20 nA

Range Keithley A changed to 200 nA

Range Keithley A changed to 200 pA

Range Keithley A changed to 20 nA

Range Keithley A changed to 200 pA

Range Keithley A changed to 20 nA

Range Keithley A changed to 200 nA

Range Keithley A changed to 200 pA

Range Keithley A changed to 20 nA

Range Keithley A changed to 200 pA

Range Keithley A changed to 20 nA

Range Keithley A changed to 200 nA

Range Keithley A changed to 200 pA

Range Keithley A changed to 20 nA

Range Keithley A changed to 200 pA

Range Keithley A changed to 20 nA

Range Keithley A changed to 200 pA

Range Keithley A changed to 20 nA

Range Keithley A changed to 200 pA

Range Keithley A changed to 20 nA

Range Keithley A changed to 200 pA

Range Keithley A changed to 20 nA

Range Keithley A changed to 200 nA

Range Keithley A changed to 200 pA

Range Keithley A changed to 20 nA

Range Keithley A changed to 200 pA

Range Keithley A changed to 20 nA

Range Keithley A changed to 200 nA

Range Keithley A changed to 200 pA

Range Keithley A changed to 20 nA

Range Keithley A changed to 200 nA

Range Keithley A changed to 200 pA

Range Keithley A changed to 20 nA

Range Keithley A changed to 200 pA

Range Keithley A changed to 20 nA

Range Keithley A changed to 200 pA

Range Keithley A changed to 20 nA

Range Keithley A changed to 200 nA

Range Keithley A changed to 200 pA

Range Keithley A changed to 20 nA

Range Keithley A changed to 200 pA

Range Keithley A changed to 20 nA

Range Keithley A changed to 200 nA

Range Keithley A changed to 20 nA

Range Keithley A changed to 200 nA

Range Keithley A changed to 200 pA

Range Keithley A changed to 20 nA

Range Keithley A changed to 200 nA

Range Keithley A changed to 2 uA

Range Keithley A changed to 20 nA

Range Keithley A changed to 200 nA

Range Keithley A changed to 2 uA

Range Keithley A changed to 20 nA

Range Keithley A changed to 200 nA

Range Keithley A changed to 200 pA

Range Keithley A changed to 2 uA

Range Keithley A changed to 20 nA

Range Keithley A changed to 200 nA

Range Keithley A changed to 200 pA

Range Keithley A changed to 20 nA

Range Keithley A changed to 2 uA

Range Keithley A changed to 20 nA

Range Keithley A changed to 200 nA

Range Keithley A changed to 20 nA

Range Keithley A changed to 200 nA

Range Keithley A changed to 200 pA

Range Keithley A changed to 2 uA

Range Keithley A changed to 20 nA

Range Keithley A changed to 200 nA

Range Keithley A changed to 20 nA

Range Keithley A changed to 200 nA

Range Keithley A changed to 200 pA

Range Keithley A changed to 20 nA

Range Keithley A changed to 200 nA

Range Keithley A changed to 20 nA

Range Keithley A changed to 200 nA

Range Keithley A changed to 200 pA

Range Keithley A changed to 20 nA

Range Keithley A changed to 200 nA

Range Keithley A changed to 200 pA

Range Keithley A changed to 20 nA

Range Keithley A changed to 200 pA

Range Keithley A changed to 20 nA

Instrument 3: AMMETER KEITHLEY 6517A C 
Measure type: Current
range type: set range value
range value (ampere):  2 uA
Integration time:  set NPLC value
NPLC value: 10.000
Digital filter count: 2
Vsource: OFF
Output Voltage value: -0.000
Vsource range: 100 V
Trigger source: bus


Range Keithley C changed to 20 uA


Range Keithley C changed to 2 uA


Range Keithley C changed to 200 uA


Range Keithley C changed to 2 uA


Range Keithley C changed to 20 uA


Range Keithley C changed to 200 uA


Range Keithley C changed to 2 uA


Range Keithley C changed to 20 uA


Range Keithley C changed to 2 uA


Range Keithley C changed to 20 uA


Range Keithley C changed to 200 uA


Range Keithley C changed to 2 uA


Range Keithley C changed to 20 uA


Range Keithley C changed to 2 uA


Range Keithley C changed to 20 uA


Range Keithley C changed to 2 uA


Range Keithley C changed to 20 uA


Range Keithley C changed to 2 uA


________________________________________________________________________________

RelativeTime (msec)	Photon Energy	Var_1	Var_2	INSTR_1_Sample with Bias _(ampere ) 	INSTR_2_Monitor IM_(ampere)  	INSTR_3_Diode A3_(ampere)	I_BPM_sum (Amps)	
________________________________________________________________________________

6.12651000E+5	2.30001310E+1	0.00000000E+0	0.00000000E+0	-3.30000000E-13	2.80970000E-10	4.69860000E-8	8.88569938E-5
6.18084000E+5	2.34995910E+1	0.00000000E+0	0.00000000E+0	-1.10000000E-13	2.73770000E-10	4.74520000E-8	8.87540476E-5
6.22611000E+5	2.39998378E+1	0.00000000E+0	0.00000000E+0	-4.40000000E-13	2.56930000E-10	4.59980000E-8	8.88118462E-5
6.27261000E+5	2.45000983E+1	0.00000000E+0	0.00000000E+0	-4.00000000E-13	2.34270000E-10	4.32140000E-8	8.84343074E-5
6.31918000E+5	2.49999855E+1	0.00000000E+0	0.00000000E+0	-5.20000000E-13	2.13550000E-10	4.04490000E-8	8.83954154E-5
6.36118000E+5	2.54999046E+1	0.00000000E+0	0.00000000E+0	-3.40000000E-13	1.99220000E-10	3.87210000E-8	8.85481761E-5
6.40446000E+5	2.59999926E+1	0.00000000E+0	0.00000000E+0	-3.90000000E-13	1.89980000E-10	3.77450000E-8	8.85006444E-5
6.44780000E+5	2.65000462E+1	0.00000000E+0	0.00000000E+0	-2.80000000E-13	1.82710000E-10	3.71010000E-8	8.83183108E-5
6.49078000E+5	2.69999804E+1	0.00000000E+0	0.00000000E+0	-5.50000000E-13	1.75150000E-10	3.63020000E-8	8.86957423E-5
6.53039000E+5	2.74999706E+1	0.00000000E+0	0.00000000E+0	-3.40000000E-13	1.66470000E-10	3.50920000E-8	8.85933028E-5
6.57239000E+5	2.80000451E+1	0.00000000E+0	0.00000000E+0	-5.30000000E-13	1.59770000E-10	3.42280000E-8	8.86404441E-5
6.61390000E+5	2.84999814E+1	0.00000000E+0	0.00000000E+0	-4.40000000E-13	1.60360000E-10	3.48900000E-8	8.90017407E-5
6.65587000E+5	2.89998728E+1	0.00000000E+0	0.00000000E+0	-3.50000000E-13	1.71360000E-10	3.78640000E-8	8.88941692E-5
6.69799000E+5	2.95003233E+1	0.00000000E+0	0.00000000E+0	-4.70000000E-13	1.91550000E-10	4.29210000E-8	8.84891765E-5
6.73979000E+5	2.99997327E+1	0.00000000E+0	0.00000000E+0	-4.10000000E-13	2.13380000E-10	4.85090000E-8	8.86380689E-5
6.77981000E+5	3.05001427E+1	0.00000000E+0	0.00000000E+0	-2.90000000E-13	2.28740000E-10	5.26700000E-8	8.86039094E-5
6.82010000E+5	3.10001660E+1	0.00000000E+0	0.00000000E+0	-5.80000000E-13	2.31650000E-10	5.38680000E-8	8.84928272E-5
6.86067000E+5	3.14999031E+1	0.00000000E+0	0.00000000E+0	-2.20000000E-13	2.20820000E-10	5.17370000E-8	8.92443763E-5
6.90125000E+5	3.20001102E+1	0.00000000E+0	0.00000000E+0	-3.40000000E-13	1.98910000E-10	4.68500000E-8	8.82914172E-5
6.94138000E+5	3.24998804E+1	0.00000000E+0	0.00000000E+0	-2.50000000E-13	1.71710000E-10	4.06720000E-8	8.84172694E-5
6.98166000E+5	3.29995733E+1	0.00000000E+0	0.00000000E+0	-5.60000000E-13	1.45030000E-10	3.44880000E-8	8.84301172E-5
7.02038000E+5	3.35001932E+1	0.00000000E+0	0.00000000E+0	-3.30000000E-13	1.22060000E-10	2.91570000E-8	8.86402266E-5
7.05957000E+5	3.40004539E+1	0.00000000E+0	0.00000000E+0	-2.70000000E-13	1.03570000E-10	2.48510000E-8	8.84026424E-5
7.10036000E+5	3.45001189E+1	0.00000000E+0	0.00000000E+0	-6.00000000E-13	8.84700000E-11	2.13610000E-8	8.88637440E-5
7.13960000E+5	3.49998684E+1	0.00000000E+0	0.00000000E+0	-3.40000000E-13	7.60400000E-11	1.84700000E-8	8.91723292E-5
7.17883000E+5	3.55000922E+1	0.00000000E+0	0.00000000E+0	-5.60000000E-13	6.58500000E-11	1.60570000E-8	8.88789968E-5
7.21810000E+5	3.59999900E+1	0.00000000E+0	0.00000000E+0	-4.10000000E-13	5.76300000E-11	1.41380000E-8	8.90625285E-5
7.25530000E+5	3.64999013E+1	0.00000000E+0	0.00000000E+0	-4.90000000E-13	5.11200000E-11	1.26050000E-8	8.91109722E-5
7.29420000E+5	3.70001276E+1	0.00000000E+0	0.00000000E+0	-3.70000000E-13	4.57900000E-11	1.13580000E-8	8.87971924E-5
7.33351000E+5	3.75000015E+1	0.00000000E+0	0.00000000E+0	-4.60000000E-13	4.11600000E-11	1.02420000E-8	8.89342265E-5
7.37134000E+5	3.79995212E+1	0.00000000E+0	0.00000000E+0	-4.60000000E-13	3.71600000E-11	9.35700000E-9	8.88762550E-5
7.40695000E+5	3.85002913E+1	0.00000000E+0	0.00000000E+0	-3.10000000E-13	3.33800000E-11	8.44100000E-9	8.89005797E-5
7.44235000E+5	3.89998898E+1	0.00000000E+0	0.00000000E+0	6.00000000E-14	2.99000000E-11	7.59200000E-9	8.88075726E-5
7.48011000E+5	3.95002541E+1	0.00000000E+0	0.00000000E+0	-3.90000000E-13	2.66900000E-11	6.80600000E-9	8.89847206E-5
7.51839000E+5	3.99997615E+1	0.00000000E+0	0.00000000E+0	-0.00000000E+0	2.37300000E-11	6.11200000E-9	8.91199725E-5
7.55414000E+5	4.05003998E+1	0.00000000E+0	0.00000000E+0	-5.40000000E-13	2.11500000E-11	5.46200000E-9	8.88704138E-5
7.59193000E+5	4.09999887E+1	0.00000000E+0	0.00000000E+0	-4.30000000E-13	1.88600000E-11	4.91000000E-9	8.88018028E-5
7.62775000E+5	4.14996691E+1	0.00000000E+0	0.00000000E+0	-5.10000000E-13	1.68400000E-11	4.41600000E-9	8.87250082E-5
7.66377000E+5	4.20002891E+1	0.00000000E+0	0.00000000E+0	-5.20000000E-13	1.52000000E-11	4.00500000E-9	8.84434388E-5
7.69937000E+5	4.24999949E+1	0.00000000E+0	0.00000000E+0	-9.00000000E-14	1.38300000E-11	3.71600000E-9	8.90686857E-5
7.73687000E+5	4.29996446E+1	0.00000000E+0	0.00000000E+0	-2.20000000E-13	1.27300000E-11	3.39600000E-9	8.89310377E-5
7.78010000E+5	4.35006652E+1	0.00000000E+0	0.00000000E+0	-5.40000000E-13	1.16800000E-11	3.15900000E-9	8.89769303E-5
7.81571000E+5	4.39997320E+1	0.00000000E+0	0.00000000E+0	-5.50000000E-13	1.06500000E-11	2.91400000E-9	8.88094591E-5
7.85307000E+5	4.45001864E+1	0.00000000E+0	0.00000000E+0	-2.60000000E-13	9.71000000E-12	2.65200000E-9	8.85688470E-5
7.88866000E+5	4.50000737E+1	0.00000000E+0	0.00000000E+0	-1.30000000E-13	8.64000000E-12	2.37900000E-9	8.86404858E-5
