G:\BEAR_storage\User_Experiments\20220317_arneodo\file(1)_Region 3__0051.txt
Ring Energy (GeV): 2
Lifetime (hours): 15.3036
Scan beginning: 3/19/2022	10:55:12 AM
Ring current (mA): 308.71
Source position: x (mm): -0.004 x' (mrad): 0.002 y (mm): 0.001 y' (mrad): 0.004
Scan end: 3/19/2022	11:08:26 AM
Ring current (mA): 309
Source position: x (mm): -0.003 x' (mrad): 0.001 y (mm): 0.002 y' (mrad): 0.004

SCAN TYPE: PHOTON ENERGY VS VAR_1 VS VAR_2

FILE INFO: FILE INFO:

SCAN PARAMETERS
waiting time (ms): 1000
Number of scans: 1
Current scan number: 1
DARK OFF 
PREDARK OFF 

SCAN PARAMETERS
Regions configuration: 
number of regions: 7
Mirror grating scan: on
Timed acquisition: off
Region 1:
Initial energy (eV): 40.000000
Final energy (eV): 72.000000
Delta energy (eV): 1.000000
Deviation angle choice: Higher order rejection
Deviation angle (°): NaN
Al filter
G1200 channel
range keithley B 20 nA
range keithley C 2 uA
range keithley A 20 nA
Var_1: PsiC 0.000000
Var_2: PhiM0.000000
Bias CEM (V): 0.000000
Bias Keithley B (V): -30.000000
Name region: 
Region 2:
Initial energy (eV): 70.000000
Final energy (eV): 102.000000
Delta energy (eV): 1.000000
Deviation angle choice: Higher order rejection
Deviation angle (°): NaN
Si filter
G1200 channel
range keithley B 20 nA
range keithley C 2 uA
range keithley A 20 nA
Var_1: PsiC 0.000000
Var_2: PhiM0.000000
Bias CEM (V): 0.000000
Bias Keithley B (V): -30.000000
Name region: 
Region 3:
Initial energy (eV): 98.000000
Final energy (eV): 260.000000
Delta energy (eV): 1.000000
Deviation angle choice: Higher order rejection
Deviation angle (°): NaN
Full Beam
G1200 channel
range keithley B 20 nA
range keithley C 20 uA
range keithley A 200 nA
Var_1: PsiC 0.000000
Var_2: PhiM0.000000
Bias CEM (V): 0.000000
Bias Keithley B (V): -30.000000
Name region: 
Region 4:
Initial energy (eV): 255.000000
Final energy (eV): 320.000000
Delta energy (eV): 1.000000
Deviation angle choice: Higher order rejection
Deviation angle (°): NaN
filter Ag 0.6 um
G1200 channel
range keithley B 200 pA
range keithley C 2 uA
range keithley A 200 pA
Var_1: PsiC 0.000000
Var_2: PhiM0.000000
Bias CEM (V): 0.000000
Bias Keithley B (V): -30.000000
Name region: 
Region 5:
Initial energy (eV): 255.000000
Final energy (eV): 320.000000
Delta energy (eV): 1.000000
Deviation angle choice: Higher order rejection
Deviation angle (°): NaN
Full Beam
G1200 channel
range keithley B 200 pA
range keithley C 2 uA
range keithley A 20 nA
Var_1: PsiC 0.000000
Var_2: PhiM0.000000
Bias CEM (V): 0.000000
Bias Keithley B (V): -30.000000
Name region: 
Region 6:
Initial energy (eV): 315.000000
Final energy (eV): 1200.000000
Delta energy (eV): 5.000000
Deviation angle choice: Higher order rejection
Deviation angle (°): NaN
Full Beam
G1200 channel
range keithley B 20 nA
range keithley C 2 uA
range keithley A 20 nA
Var_1: PsiC 0.000000
Var_2: PhiM0.000000
Bias CEM (V): 0.000000
Bias Keithley B (V): -30.000000
Name region: 
Region 7:
Initial energy (eV): 1190.000000
Final energy (eV): 1500.000000
Delta energy (eV): 5.000000
Deviation angle choice: Higher order rejection
Deviation angle (°): NaN
filter Ag 0.6 um
G1200 channel
range keithley B 200 pA
range keithley C 2 uA
range keithley A 200 pA
Var_1: PsiC 0.000000
Var_2: PhiM0.000000
Bias CEM (V): 0.000000
Bias Keithley B (V): -30.000000
Name region: 

BEAR MONOCHROMATOR CONFIGURATION: 
Current Grating Position:     -30363.40
Current Mirror Position: 105172.2
Current Grating: G1200
P2 phiz position:  0.0000
Mono axis position: 25.0000
Current Photon Energy (eV): 272.995
Current Deviation Angle: 162.460
Vertical Exit Slits (um): 100.000
Exit slit y axis position: 1.3625
Horizontal Exit Slits (um):  889.156
Exit slit z axis position: 1.9229
Mitutoyo position (mm): 

Dose on sample (mJ/cm^2): NaN

ENERGY CALIBRATION:
offset grating G1200: yes
Delta 0 order G1200:  -800.0
offset grating G1800: not
Delta 0 order G1800:  0.0
offset grating GNIM: not
Delta 0 order GNIM:  0.0
ZERO ORDER POSITIONS:
Grating G1200: Mirror position:  4938.0
Grating position: -105355.0
Grating G1800: 
Mirror position:  4938.0
Grating position: -106345.0
Grating GNIM: 
Mirror position:  10000.0
Grating position: 227300.0

Initial filter: Full Beam

EXPERIMENTAL CHAMBER CONFIGURATION: 
PsiC (deg):   -0.000186
Phi Analyzer (degrees): 89.992308
Theta Manipulator (degrees): -44.000040
Theta Analyzer (degrees): -135.001468
PhiM (degrees): -0.004103
XM (mm): 0.000713
YM (mm): 19.932987
ZM (mm): (Warning: for kinetic energy scans, 
this parameter is given in the scan settings) 
-6.601438
TiltM (°): 0.000138

ELECTRON ANALYZER CONFIGURATION: 
Current Kinetik energy (eV): 35.0
Mode: DE = COST
Pass Energy (eV):  50.000
CEM: ON
Bias Front-Back CEM (V): 3499.561
Bias Back-Collector CEM (V): 100.874
Bias Retard-Front CEM: 100.087COIL VALUES
Ix (amps):2.820
Iy (amps): 6.789
Iz (amps): 37.337

POLARIZATION SELECTOR CONFIGURATION:
Psi1 (rad): -0.001665535
Psi2 (rad): 0.001417093
Z min position (mm): 46.599650
DZ position (mm): 18.599100
Zmin 0 (mm): 66.500000
DZ0 (mm): 53.000000

BEAM SELECTOR CONFIGURATION:
Zmin position (mm): NaN
DZ position (mm): NaN
Y+ position (mm): NaN
Y- position (mm): NaN

CHANNEL ELECTRON MULTIPLIER CONFIGURATION:
CEM configured: OFF
Bias CEM: 0.000000

FLUORESCENCE DETECTOR CONFIGURATION:
Not configured

LUMINESCENCE MONOCHROMATOR CONFIGURATION:
Optical fiber position (mm): 0.000000
Optical fiber Switch inside: OFF
Optical fiber Switch outside: ON
Monochromator wavelength (A): 0.000000
Limit Switches: ON

I0 MONITOR PARAMETERS:
I0 detector position(mm): -0.000000E+0
Lower switch: OFF
Upper switch: OFF
Valve status:open

PRESSURE PARAMETERS:
Monitor chamber pressure (mbar): 8.879e-10
Experimental chamber pressure -ION GAUGE-(mbar): 0.000000E+0

XMCD PARAMETERS:
Xmcd OFF
Xmcd Direction -
Xmcd current (A): 0.000000

Gated scan off

Instrument 1: AMMETER KEITHLEY 6517A B
Measure type: Current
range type: set range value
range value (ampere):  200 pA
Integration time:  set NPLC value
NPLC value: 10.000
Digital filter count: 2
SAMPLE BIAS (V): -30.000
Vsource: ON
Output Voltage value: 30.000
Vsource range: 1000 V

Range Keithley B changed to 20 nA

Range Keithley B changed to 200 pA

Range Keithley B changed to 20 nA

Range Keithley B changed to 200 pA

Range Keithley B changed to 20 nA

Range Keithley B changed to 200 pA

Range Keithley B changed to 20 nA

Range Keithley B changed to 200 nA

Range Keithley B changed to 200 pA

Range Keithley B changed to 20 nA

Range Keithley B changed to 200 pA

Range Keithley B changed to 20 nA

Range Keithley B changed to 200 pA

Range Keithley B changed to 20 nA

Range Keithley B changed to 200 pA

Range Keithley B changed to 20 nA

Range Keithley B changed to 200 pA

Range Keithley B changed to 20 nA

Range Keithley B changed to 200 pA

Range Keithley B changed to 20 nA

Range Keithley B changed to 200 pA

Range Keithley B changed to 20 nA

Range Keithley B changed to 200 pA

Range Keithley B changed to 20 nA

Range Keithley B changed to 200 pA

Range Keithley B changed to 20 nA

Range Keithley B changed to 200 pA

Range Keithley B changed to 20 nA

Range Keithley B changed to 200 pA

Range Keithley B changed to 20 nA

Range Keithley B changed to 200 pA

Range Keithley B changed to 20 nA

Range Keithley B changed to 200 pA

Range Keithley B changed to 20 nA

Range Keithley B changed to 200 pA

Instrument 2: AMMETER KEITHLEY 6517A A
Measure type: Current
range type: set range value
range value (ampere):  200 nA
Integration time:  set NPLC value
NPLC value: 10.000
Digital filter count: 2
Vsource: OFF
Output Voltage value: -0.000
Vsource range: 100 V
Trigger source: bus

Range Keithley A changed to 20 nA

Range Keithley A changed to 200 nA

Range Keithley A changed to 200 pA

Range Keithley A changed to 20 nA

Range Keithley A changed to 200 pA

Range Keithley A changed to 20 nA

Range Keithley A changed to 200 nA

Range Keithley A changed to 200 pA

Range Keithley A changed to 20 nA

Range Keithley A changed to 200 pA

Range Keithley A changed to 20 nA

Range Keithley A changed to 200 nA

Range Keithley A changed to 200 pA

Range Keithley A changed to 20 nA

Range Keithley A changed to 200 pA

Range Keithley A changed to 20 nA

Range Keithley A changed to 200 pA

Range Keithley A changed to 20 nA

Range Keithley A changed to 200 pA

Range Keithley A changed to 20 nA

Range Keithley A changed to 200 pA

Range Keithley A changed to 20 nA

Range Keithley A changed to 200 nA

Range Keithley A changed to 200 pA

Range Keithley A changed to 20 nA

Range Keithley A changed to 200 pA

Range Keithley A changed to 20 nA

Range Keithley A changed to 200 nA

Range Keithley A changed to 200 pA

Range Keithley A changed to 20 nA

Range Keithley A changed to 200 nA

Range Keithley A changed to 200 pA

Range Keithley A changed to 20 nA

Range Keithley A changed to 200 pA

Range Keithley A changed to 20 nA

Range Keithley A changed to 200 pA

Range Keithley A changed to 20 nA

Range Keithley A changed to 200 nA

Range Keithley A changed to 200 pA

Range Keithley A changed to 20 nA

Range Keithley A changed to 200 pA

Range Keithley A changed to 20 nA

Range Keithley A changed to 200 nA

Range Keithley A changed to 20 nA

Range Keithley A changed to 200 nA

Range Keithley A changed to 200 pA

Range Keithley A changed to 20 nA

Range Keithley A changed to 200 nA

Range Keithley A changed to 2 uA

Range Keithley A changed to 20 nA

Range Keithley A changed to 200 nA

Range Keithley A changed to 2 uA

Range Keithley A changed to 20 nA

Range Keithley A changed to 200 nA

Range Keithley A changed to 200 pA

Range Keithley A changed to 2 uA

Range Keithley A changed to 20 nA

Range Keithley A changed to 200 nA

Range Keithley A changed to 200 pA

Range Keithley A changed to 20 nA

Range Keithley A changed to 2 uA

Range Keithley A changed to 20 nA

Range Keithley A changed to 200 nA

Range Keithley A changed to 20 nA

Range Keithley A changed to 200 nA

Range Keithley A changed to 200 pA

Range Keithley A changed to 2 uA

Range Keithley A changed to 20 nA

Range Keithley A changed to 200 nA

Range Keithley A changed to 20 nA

Range Keithley A changed to 200 nA

Range Keithley A changed to 200 pA

Range Keithley A changed to 20 nA

Range Keithley A changed to 200 nA

Range Keithley A changed to 20 nA

Range Keithley A changed to 200 nA

Range Keithley A changed to 200 pA

Range Keithley A changed to 20 nA

Range Keithley A changed to 200 nA

Range Keithley A changed to 200 pA

Instrument 3: AMMETER KEITHLEY 6517A C 
Measure type: Current
range type: set range value
range value (ampere):  2 uA
Integration time:  set NPLC value
NPLC value: 10.000
Digital filter count: 2
Vsource: OFF
Output Voltage value: -0.000
Vsource range: 100 V
Trigger source: bus


Range Keithley C changed to 20 uA


Range Keithley C changed to 2 uA


Range Keithley C changed to 200 uA


Range Keithley C changed to 2 uA


Range Keithley C changed to 20 uA


Range Keithley C changed to 200 uA


Range Keithley C changed to 2 uA


Range Keithley C changed to 20 uA


Range Keithley C changed to 2 uA


Range Keithley C changed to 20 uA


Range Keithley C changed to 200 uA


Range Keithley C changed to 2 uA


Range Keithley C changed to 20 uA


Range Keithley C changed to 2 uA


Range Keithley C changed to 20 uA


Range Keithley C changed to 2 uA


Range Keithley C changed to 20 uA


Range Keithley C changed to 2 uA


________________________________________________________________________________

RelativeTime (msec)	Photon Energy	Var_1	Var_2	INSTR_1_Sample with Bias _(ampere ) 	INSTR_2_Monitor IM_(ampere)  	INSTR_3_Diode A3_(ampere)	I_BPM_sum (Amps)	
________________________________________________________________________________

2.53063000E+5	9.80010492E+1	0.00000000E+0	0.00000000E+0	-3.90000000E-13	4.65460000E-9	2.68448000E-6	8.91460078E-5
2.56949000E+5	9.89986153E+1	0.00000000E+0	0.00000000E+0	7.00000000E-14	4.83680000E-9	2.80303000E-6	8.90151905E-5
2.60069000E+5	1.00000575E+2	0.00000000E+0	0.00000000E+0	-5.50000000E-13	4.99940000E-9	2.90841000E-6	8.89919089E-5
2.63137000E+5	1.00999681E+2	0.00000000E+0	0.00000000E+0	-2.70000000E-13	5.14750000E-9	3.00478000E-6	8.91420709E-5
2.66205000E+5	1.02000088E+2	0.00000000E+0	0.00000000E+0	-5.60000000E-13	5.32080000E-9	3.06010000E-6	8.89154898E-5
2.69273000E+5	1.03000229E+2	0.00000000E+0	0.00000000E+0	-1.30000000E-13	5.53090000E-9	3.13681000E-6	8.91205954E-5
2.72345000E+5	1.03999287E+2	0.00000000E+0	0.00000000E+0	-3.50000000E-13	5.74650000E-9	3.27794000E-6	8.92037826E-5
2.75446000E+5	1.04999881E+2	0.00000000E+0	0.00000000E+0	-3.60000000E-13	5.96960000E-9	3.42429000E-6	8.87900518E-5
2.78496000E+5	1.05999984E+2	0.00000000E+0	0.00000000E+0	-2.60000000E-13	6.21950000E-9	3.60326000E-6	8.89730351E-5
2.81551000E+5	1.06999917E+2	0.00000000E+0	0.00000000E+0	-3.60000000E-13	6.50630000E-9	3.72841000E-6	8.90778886E-5
2.84591000E+5	1.08000274E+2	0.00000000E+0	0.00000000E+0	-5.50000000E-13	6.79420000E-9	3.81304000E-6	8.91409444E-5
2.87515000E+5	1.08998690E+2	0.00000000E+0	0.00000000E+0	-4.40000000E-13	7.04560000E-9	3.93424000E-6	8.88311671E-5
2.90436000E+5	1.10000661E+2	0.00000000E+0	0.00000000E+0	-7.40000000E-13	7.32540000E-9	3.99791000E-6	8.88505446E-5
2.93355000E+5	1.10999909E+2	0.00000000E+0	0.00000000E+0	-4.10000000E-13	7.55290000E-9	4.20573000E-6	8.91261624E-5
2.96303000E+5	1.11999906E+2	0.00000000E+0	0.00000000E+0	-5.70000000E-13	7.77510000E-9	4.40686000E-6	8.90928494E-5
2.99228000E+5	1.13000451E+2	0.00000000E+0	0.00000000E+0	-1.70000000E-13	8.00390000E-9	4.54092000E-6	8.91968923E-5
3.02177000E+5	1.13999860E+2	0.00000000E+0	0.00000000E+0	-4.80000000E-13	8.22020000E-9	4.65844000E-6	8.94427257E-5
3.05119000E+5	1.15000405E+2	0.00000000E+0	0.00000000E+0	-1.80000000E-13	8.42630000E-9	4.77012000E-6	8.90758352E-5
3.08054000E+5	1.16000636E+2	0.00000000E+0	0.00000000E+0	-3.30000000E-13	8.63230000E-9	4.86688000E-6	8.89590042E-5
3.10959000E+5	1.16999532E+2	0.00000000E+0	0.00000000E+0	-2.90000000E-13	8.82050000E-9	4.95191000E-6	8.94597130E-5
3.13893000E+5	1.17999866E+2	0.00000000E+0	0.00000000E+0	-4.90000000E-13	8.95560000E-9	5.03307000E-6	8.92012315E-5
3.16855000E+5	1.19000149E+2	0.00000000E+0	0.00000000E+0	-2.10000000E-13	9.04090000E-9	5.10252000E-6	8.94280898E-5
3.19795000E+5	1.20000224E+2	0.00000000E+0	0.00000000E+0	-2.00000000E-14	9.08860000E-9	5.15235000E-6	8.92402308E-5
3.22724000E+5	1.20999938E+2	0.00000000E+0	0.00000000E+0	-2.10000000E-13	9.11490000E-9	5.18358000E-6	8.91649203E-5
3.25706000E+5	1.21999728E+2	0.00000000E+0	0.00000000E+0	-3.80000000E-13	9.12760000E-9	5.19832000E-6	8.92694669E-5
3.28676000E+5	1.22999780E+2	0.00000000E+0	0.00000000E+0	-2.50000000E-13	9.12160000E-9	5.19328000E-6	8.93469768E-5
3.31633000E+5	1.23999998E+2	0.00000000E+0	0.00000000E+0	-6.30000000E-13	9.09500000E-9	5.16853000E-6	8.92087775E-5
3.34564000E+5	1.24999989E+2	0.00000000E+0	0.00000000E+0	-3.60000000E-13	9.05200000E-9	5.12858000E-6	8.94009339E-5
3.37521000E+5	1.25999343E+2	0.00000000E+0	0.00000000E+0	-4.20000000E-13	8.99230000E-9	5.07568000E-6	8.93820094E-5
3.40451000E+5	1.26999549E+2	0.00000000E+0	0.00000000E+0	-3.70000000E-13	8.91170000E-9	5.01018000E-6	8.92499166E-5
3.43255000E+5	1.27998002E+2	0.00000000E+0	0.00000000E+0	-1.80000000E-13	8.80790000E-9	4.93417000E-6	8.92383473E-5
3.46065000E+5	1.29001129E+2	0.00000000E+0	0.00000000E+0	-6.70000000E-13	8.68460000E-9	4.85140000E-6	8.93442856E-5
3.48887000E+5	1.29999452E+2	0.00000000E+0	0.00000000E+0	-2.10000000E-13	8.54410000E-9	4.76368000E-6	8.93507557E-5
3.51747000E+5	1.31000835E+2	0.00000000E+0	0.00000000E+0	-3.20000000E-13	8.38320000E-9	4.66846000E-6	8.92994957E-5
3.54539000E+5	1.32000594E+2	0.00000000E+0	0.00000000E+0	-4.90000000E-13	8.20040000E-9	4.56500000E-6	8.93289881E-5
3.58084000E+5	1.33000044E+2	0.00000000E+0	0.00000000E+0	-3.70000000E-13	7.99490000E-9	4.45264000E-6	8.95581531E-5
3.60876000E+5	1.33999881E+2	0.00000000E+0	0.00000000E+0	-3.30000000E-13	7.76840000E-9	4.33164000E-6	8.92620819E-5
3.63652000E+5	1.35000138E+2	0.00000000E+0	0.00000000E+0	-3.30000000E-13	7.52480000E-9	4.20304000E-6	8.91371029E-5
3.66460000E+5	1.36000496E+2	0.00000000E+0	0.00000000E+0	-2.00000000E-14	7.26990000E-9	4.06981000E-6	8.92807441E-5
3.69253000E+5	1.36998775E+2	0.00000000E+0	0.00000000E+0	-5.30000000E-13	7.00700000E-9	3.93375000E-6	8.91277330E-5
3.72045000E+5	1.38000183E+2	0.00000000E+0	0.00000000E+0	-6.20000000E-13	6.73590000E-9	3.79416000E-6	8.92367529E-5
3.74855000E+5	1.39000347E+2	0.00000000E+0	0.00000000E+0	-5.80000000E-13	6.45590000E-9	3.64892000E-6	8.91992646E-5
3.77647000E+5	1.39998905E+2	0.00000000E+0	0.00000000E+0	-2.80000000E-13	6.15790000E-9	3.49211000E-6	8.92479258E-5
3.80434000E+5	1.40999724E+2	0.00000000E+0	0.00000000E+0	-5.70000000E-13	5.84160000E-9	3.32289000E-6	8.94449847E-5
3.83278000E+5	1.41999899E+2	0.00000000E+0	0.00000000E+0	-2.60000000E-13	5.50530000E-9	3.14051000E-6	8.92810302E-5
3.86086000E+5	1.42999843E+2	0.00000000E+0	0.00000000E+0	-2.30000000E-13	5.15250000E-9	2.94738000E-6	8.93419581E-5
3.88866000E+5	1.43999666E+2	0.00000000E+0	0.00000000E+0	-6.20000000E-13	4.79010000E-9	2.74889000E-6	8.95847100E-5
3.91745000E+5	1.45000724E+2	0.00000000E+0	0.00000000E+0	-2.00000000E-13	4.42440000E-9	2.54610000E-6	8.95645308E-5
3.94545000E+5	1.45999415E+2	0.00000000E+0	0.00000000E+0	-3.10000000E-13	4.06290000E-9	2.34321000E-6	8.89074670E-5
3.97334000E+5	1.46999608E+2	0.00000000E+0	0.00000000E+0	-5.00000000E-13	3.71170000E-9	2.14436000E-6	8.91135411E-5
4.00123000E+5	1.47998924E+2	0.00000000E+0	0.00000000E+0	4.00000000E-14	3.38260000E-9	1.95648000E-6	8.92576562E-5
4.02940000E+5	1.48999668E+2	0.00000000E+0	0.00000000E+0	-6.10000000E-13	3.07390000E-9	1.78001000E-6	8.91236650E-5
4.05717000E+5	1.49999407E+2	0.00000000E+0	0.00000000E+0	-5.50000000E-13	2.79030000E-9	1.61737000E-6	8.89175789E-5
4.09210000E+5	1.50972532E+2	0.00000000E+0	0.00000000E+0	-3.40000000E-13	2.49410000E-9	1.44790000E-6	8.91841339E-5
4.12687000E+5	1.52020583E+2	0.00000000E+0	0.00000000E+0	-2.00000000E-13	2.32050000E-9	1.34929000E-6	8.93662917E-5
4.16161000E+5	1.53002947E+2	0.00000000E+0	0.00000000E+0	-3.80000000E-13	2.15140000E-9	1.25293000E-6	8.90667753E-5
4.19668000E+5	1.54004515E+2	0.00000000E+0	0.00000000E+0	-4.00000000E-13	1.98690000E-9	1.15872000E-6	8.90676664E-5
4.23138000E+5	1.54998191E+2	0.00000000E+0	0.00000000E+0	-6.80000000E-13	1.83880000E-9	1.07340000E-6	8.92698722E-5
4.26588000E+5	1.55999722E+2	0.00000000E+0	0.00000000E+0	-4.90000000E-13	1.70590000E-9	9.96000000E-7	8.90160816E-5
4.30030000E+5	1.56998375E+2	0.00000000E+0	0.00000000E+0	-2.90000000E-13	1.58860000E-9	9.27690000E-7	8.92486828E-5
4.33495000E+5	1.57998046E+2	0.00000000E+0	0.00000000E+0	-4.20000000E-13	1.48440000E-9	8.67100000E-7	8.93964904E-5
4.36994000E+5	1.59001377E+2	0.00000000E+0	0.00000000E+0	-1.80000000E-13	1.38830000E-9	8.10520000E-7	8.93563645E-5
4.40479000E+5	1.59992601E+2	0.00000000E+0	0.00000000E+0	-1.60000000E-13	1.30340000E-9	7.59380000E-7	8.93623101E-5
4.43905000E+5	1.60993582E+2	0.00000000E+0	0.00000000E+0	-2.30000000E-13	1.23810000E-9	7.19320000E-7	8.91429799E-5
4.47358000E+5	1.62002784E+2	0.00000000E+0	0.00000000E+0	-4.50000000E-13	1.17390000E-9	6.79470000E-7	8.91113030E-5
4.50812000E+5	1.63004463E+2	0.00000000E+0	0.00000000E+0	2.00000000E-14	1.09990000E-9	6.35250000E-7	8.90499579E-5
4.54286000E+5	1.64003378E+2	0.00000000E+0	0.00000000E+0	-4.20000000E-13	1.01800000E-9	5.91250000E-7	8.92846035E-5
4.57744000E+5	1.65004401E+2	0.00000000E+0	0.00000000E+0	-5.40000000E-13	9.32400000E-10	5.43690000E-7	8.92132120E-5
4.61203000E+5	1.65999753E+2	0.00000000E+0	0.00000000E+0	-5.00000000E-13	8.53800000E-10	4.97850000E-7	8.87849288E-5
4.64679000E+5	1.67000095E+2	0.00000000E+0	0.00000000E+0	-4.20000000E-13	7.81300000E-10	4.55190000E-7	8.90966075E-5
4.68135000E+5	1.67999477E+2	0.00000000E+0	0.00000000E+0	-6.90000000E-13	7.21600000E-10	4.19800000E-7	8.93938290E-5
4.71666000E+5	1.68998507E+2	0.00000000E+0	0.00000000E+0	-2.90000000E-13	6.70900000E-10	3.89420000E-7	8.91824709E-5
4.75150000E+5	1.69996078E+2	0.00000000E+0	0.00000000E+0	-2.60000000E-13	6.26900000E-10	3.63300000E-7	8.91193288E-5
4.78632000E+5	1.70993496E+2	0.00000000E+0	0.00000000E+0	-5.40000000E-13	5.93600000E-10	3.43660000E-7	8.90568243E-5
4.82107000E+5	1.71996234E+2	0.00000000E+0	0.00000000E+0	-6.00000000E-14	5.70100000E-10	3.30050000E-7	8.89609473E-5
4.85589000E+5	1.73006320E+2	0.00000000E+0	0.00000000E+0	-3.70000000E-13	5.44100000E-10	3.14850000E-7	8.90598940E-5
4.89102000E+5	1.74001812E+2	0.00000000E+0	0.00000000E+0	-1.80000000E-13	5.15700000E-10	2.98120000E-7	8.92249095E-5
4.92576000E+5	1.75007531E+2	0.00000000E+0	0.00000000E+0	-5.50000000E-13	4.83700000E-10	2.79160000E-7	8.89237957E-5
4.96074000E+5	1.75999590E+2	0.00000000E+0	0.00000000E+0	-3.40000000E-13	4.53300000E-10	2.61200000E-7	8.91391562E-5
4.99598000E+5	1.77000119E+2	0.00000000E+0	0.00000000E+0	-5.40000000E-13	4.26000000E-10	2.45210000E-7	8.93658536E-5
5.03062000E+5	1.77997171E+2	0.00000000E+0	0.00000000E+0	-1.20000000E-13	4.05100000E-10	2.33080000E-7	8.91206252E-5
5.06545000E+5	1.78998613E+2	0.00000000E+0	0.00000000E+0	-2.40000000E-13	3.89400000E-10	2.23980000E-7	8.89765995E-5
5.10015000E+5	1.79997517E+2	0.00000000E+0	0.00000000E+0	-1.80000000E-13	3.76800000E-10	2.16830000E-7	8.93427270E-5
5.13511000E+5	1.80994569E+2	0.00000000E+0	0.00000000E+0	-1.80000000E-13	3.67400000E-10	2.11260000E-7	8.92662214E-5
5.17025000E+5	1.81991956E+2	0.00000000E+0	0.00000000E+0	-5.70000000E-13	3.61900000E-10	2.08210000E-7	8.92099964E-5
5.21350000E+5	1.83003829E+2	0.00000000E+0	0.00000000E+0	-5.20000000E-13	3.56900000E-10	2.05370000E-7	8.91773658E-5
5.24824000E+5	1.84005333E+2	0.00000000E+0	0.00000000E+0	-2.50000000E-13	3.50000000E-10	2.01360000E-7	8.91418832E-5
5.28337000E+5	1.85002506E+2	0.00000000E+0	0.00000000E+0	-2.50000000E-13	3.42400000E-10	1.97060000E-7	8.96736014E-5
5.31814000E+5	1.86004173E+2	0.00000000E+0	0.00000000E+0	-3.40000000E-13	3.34400000E-10	1.92460000E-7	8.93447446E-5
5.35282000E+5	1.87003060E+2	0.00000000E+0	0.00000000E+0	-1.00000000E-13	3.27600000E-10	1.88600000E-7	8.95268368E-5
5.38747000E+5	1.87999013E+2	0.00000000E+0	0.00000000E+0	-3.10000000E-13	3.22500000E-10	1.85680000E-7	8.95332801E-5
5.42188000E+5	1.88995006E+2	0.00000000E+0	0.00000000E+0	-6.00000000E-14	3.18900000E-10	1.83620000E-7	8.93130260E-5
5.45647000E+5	1.89998430E+2	0.00000000E+0	0.00000000E+0	-4.60000000E-13	3.16500000E-10	1.82360000E-7	8.95513164E-5
5.49130000E+5	1.90997658E+2	0.00000000E+0	0.00000000E+0	-6.60000000E-13	3.15300000E-10	1.81820000E-7	8.95998376E-5
5.52624000E+5	1.91994842E+2	0.00000000E+0	0.00000000E+0	-4.50000000E-13	3.15500000E-10	1.82000000E-7	8.93049645E-5
5.56084000E+5	1.92994453E+2	0.00000000E+0	0.00000000E+0	-4.10000000E-13	3.17200000E-10	1.83050000E-7	8.93842327E-5
5.59543000E+5	1.94006205E+2	0.00000000E+0	0.00000000E+0	-5.10000000E-13	3.17800000E-10	1.83560000E-7	8.96065998E-5
5.63010000E+5	1.95001310E+2	0.00000000E+0	0.00000000E+0	-1.70000000E-13	3.17200000E-10	1.83330000E-7	8.90782164E-5
5.66487000E+5	1.96006018E+2	0.00000000E+0	0.00000000E+0	-7.30000000E-13	3.15600000E-10	1.82500000E-7	8.93752175E-5
5.69965000E+5	1.97005828E+2	0.00000000E+0	0.00000000E+0	-4.00000000E-13	3.13000000E-10	1.81190000E-7	8.91174244E-5
5.73483000E+5	1.97997905E+2	0.00000000E+0	0.00000000E+0	-4.00000000E-13	3.10900000E-10	1.80210000E-7	8.91153025E-5
5.76945000E+5	1.98997679E+2	0.00000000E+0	0.00000000E+0	-1.00000000E-13	3.09200000E-10	1.79350000E-7	8.92838734E-5
5.80416000E+5	1.99995975E+2	0.00000000E+0	0.00000000E+0	2.30000000E-13	3.08100000E-10	1.79110000E-7	8.90975015E-5
5.83931000E+5	2.00997825E+2	0.00000000E+0	0.00000000E+0	-2.10000000E-13	3.07900000E-10	1.79230000E-7	8.91274469E-5
5.87384000E+5	2.01995623E+2	0.00000000E+0	0.00000000E+0	-2.60000000E-13	3.08400000E-10	1.79900000E-7	8.90462117E-5
5.90850000E+5	2.02991513E+2	0.00000000E+0	0.00000000E+0	-6.10000000E-13	3.11000000E-10	1.81680000E-7	8.89140563E-5
5.94315000E+5	2.04003010E+2	0.00000000E+0	0.00000000E+0	-5.00000000E-13	3.13300000E-10	1.83370000E-7	8.95508187E-5
5.97782000E+5	2.05007553E+2	0.00000000E+0	0.00000000E+0	-3.30000000E-13	3.14800000E-10	1.84600000E-7	8.90814709E-5
6.01256000E+5	2.06003011E+2	0.00000000E+0	0.00000000E+0	-3.20000000E-13	3.16000000E-10	1.85700000E-7	8.94794481E-5
6.04706000E+5	2.07006780E+2	0.00000000E+0	0.00000000E+0	-4.30000000E-13	3.16900000E-10	1.86530000E-7	8.92035680E-5
6.08181000E+5	2.07998802E+2	0.00000000E+0	0.00000000E+0	-3.20000000E-13	3.17600000E-10	1.87500000E-7	8.94075619E-5
6.11663000E+5	2.08994867E+2	0.00000000E+0	0.00000000E+0	-4.90000000E-13	3.18800000E-10	1.88680000E-7	8.90560167E-5
6.15135000E+5	2.10000034E+2	0.00000000E+0	0.00000000E+0	-6.00000000E-13	3.20200000E-10	1.89990000E-7	8.92574536E-5
6.18621000E+5	2.10995642E+2	0.00000000E+0	0.00000000E+0	-3.80000000E-13	3.21600000E-10	1.91260000E-7	8.92976361E-5
6.22118000E+5	2.11998494E+2	0.00000000E+0	0.00000000E+0	-3.00000000E-13	3.23100000E-10	1.92630000E-7	8.92634945E-5
6.25588000E+5	2.12994307E+2	0.00000000E+0	0.00000000E+0	-2.80000000E-13	3.25100000E-10	1.94210000E-7	8.91902136E-5
6.29045000E+5	2.13994304E+2	0.00000000E+0	0.00000000E+0	-2.50000000E-13	3.27800000E-10	1.96210000E-7	8.91454088E-5
6.32555000E+5	2.15008307E+2	0.00000000E+0	0.00000000E+0	-1.40000000E-13	3.29100000E-10	1.97400000E-7	8.91252296E-5
6.36047000E+5	2.16007023E+2	0.00000000E+0	0.00000000E+0	-2.50000000E-13	3.28300000E-10	1.97420000E-7	8.96268177E-5
6.39547000E+5	2.17001487E+2	0.00000000E+0	0.00000000E+0	-2.60000000E-13	3.25600000E-10	1.96300000E-7	8.91888278E-5
6.43016000E+5	2.18001045E+2	0.00000000E+0	0.00000000E+0	-5.00000000E-13	3.22100000E-10	1.94790000E-7	8.92102646E-5
6.46504000E+5	2.18998665E+2	0.00000000E+0	0.00000000E+0	-5.20000000E-13	3.18700000E-10	1.93150000E-7	8.89066325E-5
6.49983000E+5	2.19997324E+2	0.00000000E+0	0.00000000E+0	-3.20000000E-13	3.15900000E-10	1.91940000E-7	8.90527176E-5
6.53465000E+5	2.20996602E+2	0.00000000E+0	0.00000000E+0	-3.80000000E-13	3.13600000E-10	1.91050000E-7	8.90304016E-5
6.56966000E+5	2.21998310E+2	0.00000000E+0	0.00000000E+0	-2.20000000E-13	3.12200000E-10	1.90560000E-7	8.93851864E-5
6.60423000E+5	2.22994300E+2	0.00000000E+0	0.00000000E+0	-6.30000000E-13	3.12000000E-10	1.90940000E-7	8.87709545E-5
6.63916000E+5	2.23990513E+2	0.00000000E+0	0.00000000E+0	-5.70000000E-13	3.13800000E-10	1.92360000E-7	8.90391605E-5
6.67396000E+5	2.25008781E+2	0.00000000E+0	0.00000000E+0	-3.20000000E-13	3.14700000E-10	1.93390000E-7	8.89395254E-5
6.70876000E+5	2.26004442E+2	0.00000000E+0	0.00000000E+0	-1.40000000E-13	3.14700000E-10	1.93850000E-7	8.91209828E-5
6.74334000E+5	2.27003259E+2	0.00000000E+0	0.00000000E+0	-6.30000000E-13	3.13800000E-10	1.93910000E-7	8.89188694E-5
6.77793000E+5	2.28006726E+2	0.00000000E+0	0.00000000E+0	-5.30000000E-13	3.13200000E-10	1.94130000E-7	8.88513164E-5
6.81288000E+5	2.28996155E+2	0.00000000E+0	0.00000000E+0	-3.10000000E-13	3.13200000E-10	1.94720000E-7	8.88259934E-5
6.84775000E+5	2.29998065E+2	0.00000000E+0	0.00000000E+0	-3.00000000E-14	3.13900000E-10	1.95760000E-7	8.87888657E-5
6.88254000E+5	2.30996623E+2	0.00000000E+0	0.00000000E+0	-3.30000000E-13	3.15500000E-10	1.97340000E-7	8.93341290E-5
6.91785000E+5	2.31998408E+2	0.00000000E+0	0.00000000E+0	-5.00000000E-13	3.18400000E-10	1.99780000E-7	8.88763563E-5
6.96060000E+5	2.32994640E+2	0.00000000E+0	0.00000000E+0	-2.50000000E-13	3.22900000E-10	2.03120000E-7	8.91869055E-5
6.99547000E+5	2.33993104E+2	0.00000000E+0	0.00000000E+0	-1.00000000E-14	3.28200000E-10	2.06820000E-7	8.92203199E-5
7.03020000E+5	2.35000525E+2	0.00000000E+0	0.00000000E+0	-3.50000000E-13	3.33700000E-10	2.10770000E-7	8.89724838E-5
7.06484000E+5	2.36005923E+2	0.00000000E+0	0.00000000E+0	-4.50000000E-13	3.38400000E-10	2.14420000E-7	8.91547637E-5
7.09961000E+5	2.37006636E+2	0.00000000E+0	0.00000000E+0	-5.30000000E-13	3.42700000E-10	2.17890000E-7	8.90180068E-5
7.13435000E+5	2.38008135E+2	0.00000000E+0	0.00000000E+0	-4.90000000E-13	3.46800000E-10	2.21280000E-7	8.89990674E-5
7.16936000E+5	2.38996958E+2	0.00000000E+0	0.00000000E+0	-1.80000000E-13	3.51200000E-10	2.24870000E-7	8.90083985E-5
7.20410000E+5	2.39999330E+2	0.00000000E+0	0.00000000E+0	-2.00000000E-13	3.56200000E-10	2.28800000E-7	8.88066010E-5
7.23884000E+5	2.41002845E+2	0.00000000E+0	0.00000000E+0	-1.10000000E-13	3.61700000E-10	2.33070000E-7	8.90777634E-5
7.27355000E+5	2.41988857E+2	0.00000000E+0	0.00000000E+0	-5.70000000E-13	3.67900000E-10	2.37640000E-7	8.88535486E-5
7.30837000E+5	2.42997082E+2	0.00000000E+0	0.00000000E+0	-4.30000000E-13	3.74600000E-10	2.42610000E-7	8.88858633E-5
7.34319000E+5	2.43993818E+2	0.00000000E+0	0.00000000E+0	-4.00000000E-14	3.81900000E-10	2.47990000E-7	8.89971809E-5
7.37815000E+5	2.44998276E+2	0.00000000E+0	0.00000000E+0	-3.80000000E-13	3.89900000E-10	2.53530000E-7	8.89857875E-5
7.41316000E+5	2.46003334E+2	0.00000000E+0	0.00000000E+0	-6.40000000E-13	3.97300000E-10	2.58880000E-7	8.92173248E-5
7.44759000E+5	2.47005715E+2	0.00000000E+0	0.00000000E+0	-3.40000000E-13	4.04600000E-10	2.64180000E-7	8.91564714E-5
7.48239000E+5	2.48003811E+2	0.00000000E+0	0.00000000E+0	-5.20000000E-13	4.11300000E-10	2.69150000E-7	8.96044510E-5
7.51702000E+5	2.49000222E+2	0.00000000E+0	0.00000000E+0	-2.40000000E-13	4.16800000E-10	2.73360000E-7	8.95074772E-5
7.55209000E+5	2.49999135E+2	0.00000000E+0	0.00000000E+0	-2.60000000E-13	4.22400000E-10	2.77400000E-7	8.93657910E-5
7.58117000E+5	2.50997535E+2	0.00000000E+0	0.00000000E+0	-5.00000000E-13	4.21300000E-10	2.76980000E-7	8.94313651E-5
7.61039000E+5	2.51999267E+2	0.00000000E+0	0.00000000E+0	-5.90000000E-13	4.20100000E-10	2.76350000E-7	8.91786086E-5
7.63932000E+5	2.52996868E+2	0.00000000E+0	0.00000000E+0	-5.50000000E-13	4.18700000E-10	2.75530000E-7	8.90443819E-5
7.66826000E+5	2.54000777E+2	0.00000000E+0	0.00000000E+0	-3.40000000E-13	4.17200000E-10	2.74570000E-7	8.91624319E-5
7.69712000E+5	2.54999047E+2	0.00000000E+0	0.00000000E+0	-4.10000000E-13	4.15600000E-10	2.73410000E-7	8.93172549E-5
7.72597000E+5	2.55999213E+2	0.00000000E+0	0.00000000E+0	-2.00000000E-13	4.13800000E-10	2.72110000E-7	8.86678354E-5
7.75510000E+5	2.56998089E+2	0.00000000E+0	0.00000000E+0	-5.70000000E-13	4.12100000E-10	2.70720000E-7	8.89839100E-5
7.78412000E+5	2.58000566E+2	0.00000000E+0	0.00000000E+0	-2.90000000E-13	4.10300000E-10	2.69190000E-7	8.89990793E-5
7.81318000E+5	2.58998429E+2	0.00000000E+0	0.00000000E+0	-4.70000000E-13	4.08700000E-10	2.67660000E-7	8.91281860E-5
7.84217000E+5	2.59999674E+2	0.00000000E+0	0.00000000E+0	-2.90000000E-13	4.07000000E-10	2.66050000E-7	8.89464097E-5
