G:\BEAR_storage\User_Experiments\20220317_arneodo\file(1)_Region 5__0079.txt
Ring Energy (GeV): 2
Lifetime (hours): 15.3642
Scan beginning: 3/21/2022	4:03:41 PM
Ring current (mA): 308.61
Source position: x (mm): 0.005 x' (mrad): 0.001 y (mm): 0 y' (mrad): 0.002
Scan end: 3/21/2022	4:39:30 PM
Ring current (mA): 309.25
Source position: x (mm): 0.005 x' (mrad): 0.001 y (mm): -0 y' (mrad): 0.001

SCAN TYPE: PHOTON ENERGY VS VAR_1 VS VAR_2

FILE INFO: FILE INFO:

SCAN PARAMETERS
waiting time (ms): 1000
Number of scans: 1
Current scan number: 1
DARK OFF 
PREDARK OFF 

SCAN PARAMETERS
Regions configuration: 
number of regions: 6
Mirror grating scan: on
Timed acquisition: off
Region 1:
Initial energy (eV): 40.000000
Final energy (eV): 72.000000
Delta energy (eV): 1.000000
Deviation angle choice: Higher order rejection
Deviation angle (°): NaN
Al filter
G1200 channel
range keithley B 20 nA
range keithley C 200 nA
range keithley A 20 nA
Var_1: PsiC 0.000000
Var_2: PhiM0.000000
Bias CEM (V): 0.000000
Bias Keithley B (V): -30.000000
Name region: 
Region 2:
Initial energy (eV): 70.000000
Final energy (eV): 102.000000
Delta energy (eV): 1.000000
Deviation angle choice: Higher order rejection
Deviation angle (°): NaN
Si filter
G1200 channel
range keithley B 20 nA
range keithley C 200 nA
range keithley A 20 nA
Var_1: PsiC 0.000000
Var_2: PhiM0.000000
Bias CEM (V): 0.000000
Bias Keithley B (V): -30.000000
Name region: 
Region 3:
Initial energy (eV): 98.000000
Final energy (eV): 260.000000
Delta energy (eV): 1.000000
Deviation angle choice: Higher order rejection
Deviation angle (°): NaN
Full Beam
G1200 channel
range keithley B 20 nA
range keithley C 200 nA
range keithley A 200 nA
Var_1: PsiC 0.000000
Var_2: PhiM0.000000
Bias CEM (V): 0.000000
Bias Keithley B (V): -30.000000
Name region: 
Region 4:
Initial energy (eV): 255.000000
Final energy (eV): 320.000000
Delta energy (eV): 1.000000
Deviation angle choice: Higher order rejection
Deviation angle (°): NaN
filter Ag 0.6 um
G1200 channel
range keithley B 200 pA
range keithley C 200 nA
range keithley A 200 pA
Var_1: PsiC 0.000000
Var_2: PhiM0.000000
Bias CEM (V): 0.000000
Bias Keithley B (V): -30.000000
Name region: 
Region 5:
Initial energy (eV): 315.000000
Final energy (eV): 1200.000000
Delta energy (eV): 5.000000
Deviation angle choice: Higher order rejection
Deviation angle (°): NaN
Full Beam
G1200 channel
range keithley B 20 nA
range keithley C 200 nA
range keithley A 20 nA
Var_1: PsiC 0.000000
Var_2: PhiM0.000000
Bias CEM (V): 0.000000
Bias Keithley B (V): -30.000000
Name region: 
Region 6:
Initial energy (eV): 1190.000000
Final energy (eV): 1500.000000
Delta energy (eV): 5.000000
Deviation angle choice: Higher order rejection
Deviation angle (°): NaN
filter Ag 0.6 um
G1200 channel
range keithley B 200 pA
range keithley C 200 nA
range keithley A 200 pA
Var_1: PsiC 0.000000
Var_2: PhiM0.000000
Bias CEM (V): 0.000000
Bias Keithley B (V): -30.000000
Name region: 

BEAR MONOCHROMATOR CONFIGURATION: 
Current Grating Position:     160137.80
Current Mirror Position: 298443.6
Current Grating: G1200
P2 phiz position:  0.0000
Mono axis position: 25.0000
Current Photon Energy (eV): 1500.015
Current Deviation Angle: 175.800
Vertical Exit Slits (um): 100.000
Exit slit y axis position: 1.3625
Horizontal Exit Slits (um):  889.156
Exit slit z axis position: 1.9229
Mitutoyo position (mm): 

Dose on sample (mJ/cm^2): NaN

ENERGY CALIBRATION:
offset grating G1200: yes
Delta 0 order G1200:  -1100.0
offset grating G1800: not
Delta 0 order G1800:  0.0
offset grating GNIM: not
Delta 0 order GNIM:  0.0
ZERO ORDER POSITIONS:
Grating G1200: Mirror position:  4938.0
Grating position: -105355.0
Grating G1800: 
Mirror position:  4938.0
Grating position: -106345.0
Grating GNIM: 
Mirror position:  10000.0
Grating position: 227300.0

Initial filter: Ag filter 0.6 um

EXPERIMENTAL CHAMBER CONFIGURATION: 
PsiC (deg):   -0.000186
Phi Analyzer (degrees): 89.993255
Theta Manipulator (degrees): -44.000040
Theta Analyzer (degrees): -135.001468
PhiM (degrees): -0.003077
XM (mm): -11.999075
YM (mm): 9.947225
ZM (mm): (Warning: for kinetic energy scans, 
this parameter is given in the scan settings) 
-6.001413
TiltM (°): 0.000138

ELECTRON ANALYZER CONFIGURATION: 
Current Kinetik energy (eV): 35.0
Mode: DE = COST
Pass Energy (eV):  100.000
CEM: ON
Bias Front-Back CEM (V): 3499.698
Bias Back-Collector CEM (V): 100.874
Bias Retard-Front CEM: 100.104COIL VALUES
Ix (amps):2.820
Iy (amps): 6.789
Iz (amps): 37.403

POLARIZATION SELECTOR CONFIGURATION:
Psi1 (rad): -0.001665535
Psi2 (rad): 0.001417093
Z min position (mm): 46.599650
DZ position (mm): 18.599100
Zmin 0 (mm): 65.700000
DZ0 (mm): 54.000000

BEAM SELECTOR CONFIGURATION:
Zmin position (mm): NaN
DZ position (mm): NaN
Y+ position (mm): NaN
Y- position (mm): NaN

CHANNEL ELECTRON MULTIPLIER CONFIGURATION:
CEM configured: OFF
Bias CEM: 0.000000

FLUORESCENCE DETECTOR CONFIGURATION:
Not configured

LUMINESCENCE MONOCHROMATOR CONFIGURATION:
Optical fiber position (mm): 0.000000
Optical fiber Switch inside: ON
Optical fiber Switch outside: ON
Monochromator wavelength (A): 0.000000
Limit Switches: ON

I0 MONITOR PARAMETERS:
I0 detector position(mm): NaN
Lower switch: OFF
Upper switch: OFF
Valve status:unread

PRESSURE PARAMETERS:
Monitor chamber pressure (mbar): 9.13e-10
Experimental chamber pressure -ION GAUGE-(mbar): 0.000000E+0

XMCD PARAMETERS:
Xmcd OFF
Xmcd Direction -
Xmcd current (A): 0.000000

Gated scan off

Instrument 1: AMMETER KEITHLEY 6517A B
Measure type: Current
range type: set range value
range value (ampere):  200 pA
Integration time:  set NPLC value
NPLC value: 10.000
Digital filter count: 2
SAMPLE BIAS (V): -30.000
Vsource: ON
Output Voltage value: 30.000
Vsource range: 1000 V

Range Keithley B changed to 20 nA

Range Keithley B changed to 200 pA

Range Keithley B changed to 20 nA

Range Keithley B changed to 200 pA

Keithley B Bias (V) changed to: 0.000000

Range Keithley B changed to 20 nA

Keithley B Bias (V) changed to: -30.000000

Range Keithley B changed to 200 pA

Range Keithley B changed to 20 nA

Range Keithley B changed to 200 pA

Range Keithley B changed to 20 nA

Range Keithley B changed to 200 pA

Range Keithley B changed to 20 nA

Range Keithley B changed to 200 pA

Instrument 2: AMMETER KEITHLEY 6517A A
Measure type: Current
range type: set range value
range value (ampere):  200 pA
Integration time:  set NPLC value
NPLC value: 10.000
Digital filter count: 2
Vsource: OFF
Output Voltage value: -0.000
Vsource range: 100 V
Trigger source: bus

Range Keithley A changed to 20 nA

Range Keithley A changed to 200 nA

Range Keithley A changed to 200 pA

Range Keithley A changed to 20 nA

Range Keithley A changed to 200 pA

Range Keithley A changed to 20 nA

Range Keithley A changed to 200 nA

Range Keithley A changed to 200 pA

Range Keithley A changed to 20 nA

Range Keithley A changed to 200 pA

Range Keithley A changed to 20 nA

Range Keithley A changed to 200 nA

Range Keithley A changed to 200 pA

Range Keithley A changed to 20 nA

Range Keithley A changed to 200 pA

Instrument 3: COUNTER ORTEC 996Integration time (sec): 1.000


Range Keithley C changed to 200 nA


Range Keithley C changed to 2 uA


Range Keithley C changed to 200 nA


________________________________________________________________________________

RelativeTime (msec)	Photon Energy	Var_1	Var_2	INSTR_1_Sample with Bias _(ampere ) 	INSTR_2_Monitor IM_(ampere)  	INSTR_3_Ortec 996 counts_(counts)	I_BPM_sum (Amps)	
________________________________________________________________________________

1.35788500E+6	3.14983757E+2	0.00000000E+0	0.00000000E+0	1.84000000E-12	1.44421000E-9	1.50000000E+1	8.91268747E-5
1.36371100E+6	3.20020311E+2	0.00000000E+0	0.00000000E+0	2.23000000E-12	1.51122000E-9	2.10000000E+1	8.92476725E-5
1.36833100E+6	3.24992261E+2	0.00000000E+0	0.00000000E+0	2.18000000E-12	1.50404000E-9	1.40000000E+1	8.90495079E-5
1.37294400E+6	3.29988991E+2	0.00000000E+0	0.00000000E+0	1.87000000E-12	1.48540000E-9	2.60000000E+1	8.90664624E-5
1.37765800E+6	3.34995671E+2	0.00000000E+0	0.00000000E+0	1.86000000E-12	1.46419000E-9	1.50000000E+1	8.92786579E-5
1.38226300E+6	3.39987534E+2	0.00000000E+0	0.00000000E+0	1.95000000E-12	1.50884000E-9	2.10000000E+1	8.90495436E-5
1.38769900E+6	3.45020659E+2	0.00000000E+0	0.00000000E+0	2.06000000E-12	1.52882000E-9	1.40000000E+1	8.91148018E-5
1.39231900E+6	3.50005443E+2	0.00000000E+0	0.00000000E+0	1.92000000E-12	1.49166000E-9	1.70000000E+1	8.91778099E-5
1.39718900E+6	3.55016292E+2	0.00000000E+0	0.00000000E+0	1.86000000E-12	1.50792000E-9	2.40000000E+1	8.89819967E-5
1.40207700E+6	3.59980976E+2	0.00000000E+0	0.00000000E+0	2.12000000E-12	1.56938000E-9	1.40000000E+1	8.94263016E-5
1.40696200E+6	3.64976507E+2	0.00000000E+0	0.00000000E+0	2.16000000E-12	1.67247000E-9	1.80000000E+1	8.95778167E-5
1.41183100E+6	3.69999713E+2	0.00000000E+0	0.00000000E+0	2.36000000E-12	1.74866000E-9	1.60000000E+1	8.95742732E-5
1.41677300E+6	3.75041652E+2	0.00000000E+0	0.00000000E+0	2.26000000E-12	1.78702000E-9	1.50000000E+1	8.98032266E-5
1.42164300E+6	3.79987412E+2	0.00000000E+0	0.00000000E+0	2.26000000E-12	1.81919000E-9	1.60000000E+1	8.91003804E-5
1.42652400E+6	3.84995485E+2	0.00000000E+0	0.00000000E+0	2.41000000E-12	1.88929000E-9	2.20000000E+1	8.93710392E-5
1.43152100E+6	3.89960948E+2	0.00000000E+0	0.00000000E+0	2.58000000E-12	1.98950000E-9	2.80000000E+1	8.95665931E-5
1.43639800E+6	3.95031395E+2	0.00000000E+0	0.00000000E+0	2.71000000E-12	2.06433000E-9	2.20000000E+1	8.98182887E-5
1.44128500E+6	4.00026044E+2	0.00000000E+0	0.00000000E+0	2.71000000E-12	2.10241000E-9	3.70000000E+1	8.95002084E-5
1.44617900E+6	4.04984475E+2	0.00000000E+0	0.00000000E+0	2.79000000E-12	2.13810000E-9	1.60000000E+1	8.94684213E-5
1.45116300E+6	4.09968150E+2	0.00000000E+0	0.00000000E+0	2.50000000E-12	2.12673000E-9	2.80000000E+1	8.92707901E-5
1.45614000E+6	4.14987018E+2	0.00000000E+0	0.00000000E+0	2.83000000E-12	2.32120000E-9	1.40000000E+1	8.95560997E-5
1.46102400E+6	4.20034883E+2	0.00000000E+0	0.00000000E+0	2.68000000E-12	2.35172000E-9	1.70000000E+1	8.94721048E-5
1.46587100E+6	4.25020870E+2	0.00000000E+0	0.00000000E+0	3.05000000E-12	2.51890000E-9	3.10000000E+1	8.93514203E-5
1.47076600E+6	4.29990493E+2	0.00000000E+0	0.00000000E+0	3.31000000E-12	2.64762000E-9	3.30000000E+1	8.92879205E-5
1.47563600E+6	4.34976936E+2	0.00000000E+0	0.00000000E+0	3.72000000E-12	2.77898000E-9	3.20000000E+1	8.94079285E-5
1.48054300E+6	4.39989237E+2	0.00000000E+0	0.00000000E+0	3.89000000E-12	2.91462000E-9	2.00000000E+1	8.92690735E-5
1.48543800E+6	4.45033020E+2	0.00000000E+0	0.00000000E+0	4.00000000E-12	3.00816000E-9	3.70000000E+1	8.94342440E-5
1.49044700E+6	4.50005976E+2	0.00000000E+0	0.00000000E+0	4.17000000E-12	3.11720000E-9	3.60000000E+1	8.93173920E-5
1.49505500E+6	4.54978689E+2	0.00000000E+0	0.00000000E+0	4.19000000E-12	3.15780000E-9	3.90000000E+1	8.96747607E-5
1.49976100E+6	4.59986390E+2	0.00000000E+0	0.00000000E+0	4.31000000E-12	3.21569000E-9	2.30000000E+1	8.95493376E-5
1.50441000E+6	4.64992474E+2	0.00000000E+0	0.00000000E+0	4.34000000E-12	3.28530000E-9	3.70000000E+1	8.94851523E-5
1.50913800E+6	4.69999982E+2	0.00000000E+0	0.00000000E+0	4.43000000E-12	3.33534000E-9	3.10000000E+1	8.93177526E-5
1.51376400E+6	4.75032291E+2	0.00000000E+0	0.00000000E+0	7.70000000E-12	3.35807000E-9	5.60000000E+1	8.92170118E-5
1.51838900E+6	4.80003142E+2	0.00000000E+0	0.00000000E+0	8.63000000E-12	3.38405000E-9	5.40000000E+1	8.93264996E-5
1.52314600E+6	4.84979178E+2	0.00000000E+0	0.00000000E+0	5.08000000E-12	3.43819000E-9	3.70000000E+1	8.89737414E-5
1.52780600E+6	4.89989269E+2	0.00000000E+0	0.00000000E+0	5.11000000E-12	3.51380000E-9	4.80000000E+1	8.91733932E-5
1.53240600E+6	4.94986005E+2	0.00000000E+0	0.00000000E+0	5.10000000E-12	3.59150000E-9	2.60000000E+1	8.93928575E-5
1.53701500E+6	5.00003588E+2	0.00000000E+0	0.00000000E+0	5.04000000E-12	3.65770000E-9	3.50000000E+1	8.96681326E-5
1.54171300E+6	5.05008386E+2	0.00000000E+0	0.00000000E+0	5.09000000E-12	3.68482000E-9	3.50000000E+1	8.92096149E-5
1.54644800E+6	5.10016324E+2	0.00000000E+0	0.00000000E+0	5.11000000E-12	3.65784000E-9	3.30000000E+1	8.93588292E-5
1.55115700E+6	5.15001498E+2	0.00000000E+0	0.00000000E+0	5.22000000E-12	3.61146000E-9	2.60000000E+1	8.92554181E-5
1.55578200E+6	5.20002355E+2	0.00000000E+0	0.00000000E+0	5.10000000E-12	3.54115000E-9	2.10000000E+1	8.92099219E-5
1.56041000E+6	5.24981273E+2	0.00000000E+0	0.00000000E+0	5.02000000E-12	3.44218000E-9	3.50000000E+1	8.93605577E-5
1.56503900E+6	5.29987412E+2	0.00000000E+0	0.00000000E+0	4.71000000E-12	3.31739000E-9	3.80000000E+1	8.87613909E-5
1.56977200E+6	5.34983456E+2	0.00000000E+0	0.00000000E+0	4.58000000E-12	3.19451000E-9	3.50000000E+1	8.92389761E-5
1.57442700E+6	5.40013969E+2	0.00000000E+0	0.00000000E+0	4.87000000E-12	3.42654000E-9	3.00000000E+1	8.93639850E-5
1.57902300E+6	5.45041045E+2	0.00000000E+0	0.00000000E+0	5.13000000E-12	3.68674000E-9	4.40000000E+1	8.91981559E-5
1.58373800E+6	5.49985340E+2	0.00000000E+0	0.00000000E+0	8.34000000E-12	4.04269000E-9	6.80000000E+1	8.95812469E-5
1.58836700E+6	5.55006126E+2	0.00000000E+0	0.00000000E+0	1.51000000E-11	4.21526000E-9	8.10000000E+1	8.93823939E-5
1.59306700E+6	5.59966058E+2	0.00000000E+0	0.00000000E+0	1.30700000E-11	4.44688000E-9	7.30000000E+1	8.92404037E-5
1.59766700E+6	5.64997660E+2	0.00000000E+0	0.00000000E+0	1.14700000E-11	4.63188000E-9	8.10000000E+1	8.91375320E-5
1.60236300E+6	5.69973632E+2	0.00000000E+0	0.00000000E+0	1.20000000E-11	4.87932000E-9	7.70000000E+1	8.93993663E-5
1.60707200E+6	5.75025099E+2	0.00000000E+0	0.00000000E+0	1.42700000E-11	5.14439000E-9	8.80000000E+1	8.90168982E-5
1.61168300E+6	5.80013575E+2	0.00000000E+0	0.00000000E+0	1.44300000E-11	5.32877000E-9	8.40000000E+1	8.92934131E-5
1.61637000E+6	5.85017400E+2	0.00000000E+0	0.00000000E+0	1.40700000E-11	5.39403000E-9	7.60000000E+1	8.89704542E-5
1.62095700E+6	5.89990334E+2	0.00000000E+0	0.00000000E+0	1.34800000E-11	5.52333000E-9	1.03000000E+2	8.89630156E-5
1.62635900E+6	5.94988626E+2	0.00000000E+0	0.00000000E+0	1.40300000E-11	5.71212000E-9	9.20000000E+1	8.91405093E-5
1.63099300E+6	5.99973186E+2	0.00000000E+0	0.00000000E+0	1.41800000E-11	5.92286000E-9	9.70000000E+1	8.87141572E-5
1.63561800E+6	6.05010301E+2	0.00000000E+0	0.00000000E+0	1.48600000E-11	6.14865000E-9	1.11000000E+2	8.89303194E-5
1.64024400E+6	6.10000549E+2	0.00000000E+0	0.00000000E+0	1.53600000E-11	6.35443000E-9	8.80000000E+1	8.91856926E-5
1.64498500E+6	6.15027698E+2	0.00000000E+0	0.00000000E+0	1.56600000E-11	6.51326000E-9	9.70000000E+1	8.92787831E-5
1.64969000E+6	6.20006847E+2	0.00000000E+0	0.00000000E+0	1.57900000E-11	6.64180000E-9	1.21000000E+2	8.94794243E-5
1.65447400E+6	6.24979601E+2	0.00000000E+0	0.00000000E+0	1.58400000E-11	6.79835000E-9	1.08000000E+2	8.93160509E-5
1.65917600E+6	6.29983554E+2	0.00000000E+0	0.00000000E+0	1.66100000E-11	7.12413000E-9	1.18000000E+2	8.93719035E-5
1.66378900E+6	6.34982936E+2	0.00000000E+0	0.00000000E+0	1.81300000E-11	7.82998000E-9	1.10000000E+2	8.94154834E-5
1.66851000E+6	6.39997653E+2	0.00000000E+0	0.00000000E+0	1.88900000E-11	8.26917000E-9	1.18000000E+2	8.92756628E-5
1.67312700E+6	6.45035587E+2	0.00000000E+0	0.00000000E+0	1.93600000E-11	8.53721000E-9	1.16000000E+2	8.95276921E-5
1.67775600E+6	6.50017302E+2	0.00000000E+0	0.00000000E+0	1.94600000E-11	8.73260000E-9	1.25000000E+2	8.94742596E-5
1.68236800E+6	6.55015663E+2	0.00000000E+0	0.00000000E+0	1.99900000E-11	8.94349000E-9	1.32000000E+2	8.93516319E-5
1.68707000E+6	6.59971647E+2	0.00000000E+0	0.00000000E+0	2.04000000E-11	9.26540000E-9	1.43000000E+2	8.93132763E-5
1.69172400E+6	6.64971147E+2	0.00000000E+0	0.00000000E+0	2.09500000E-11	9.57806000E-9	1.27000000E+2	8.94097256E-5
1.69635100E+6	6.70019878E+2	0.00000000E+0	0.00000000E+0	2.16600000E-11	9.87893000E-9	1.51000000E+2	8.95354348E-5
1.70109500E+6	6.74972853E+2	0.00000000E+0	0.00000000E+0	2.20400000E-11	1.01455100E-8	1.50000000E+2	8.93176543E-5
1.70581800E+6	6.80039593E+2	0.00000000E+0	0.00000000E+0	2.24700000E-11	1.03740000E-8	1.49000000E+2	8.95235347E-5
1.71051300E+6	6.84998778E+2	0.00000000E+0	0.00000000E+0	2.27600000E-11	1.05912300E-8	1.84000000E+2	8.93773305E-5
1.71524500E+6	6.90003168E+2	0.00000000E+0	0.00000000E+0	2.31200000E-11	1.07947900E-8	1.37000000E+2	8.94304501E-5
1.71986300E+6	6.94999848E+2	0.00000000E+0	0.00000000E+0	2.35500000E-11	1.10106800E-8	1.63000000E+2	8.94481676E-5
1.72458700E+6	6.99969741E+2	0.00000000E+0	0.00000000E+0	2.39000000E-11	1.12390000E-8	1.67000000E+2	8.96812129E-5
1.72920200E+6	7.04980090E+2	0.00000000E+0	0.00000000E+0	2.45500000E-11	1.14977900E-8	1.89000000E+2	8.94272643E-5
1.73389700E+6	7.10012652E+2	0.00000000E+0	0.00000000E+0	2.48700000E-11	1.17056300E-8	1.69000000E+2	8.95032662E-5
1.73861900E+6	7.15021168E+2	0.00000000E+0	0.00000000E+0	2.51900000E-11	1.18266200E-8	1.70000000E+2	8.94562858E-5
1.74329200E+6	7.20013962E+2	0.00000000E+0	0.00000000E+0	2.55300000E-11	1.18573000E-8	2.00000000E+2	8.92070489E-5
1.74801100E+6	7.24986068E+2	0.00000000E+0	0.00000000E+0	3.44800000E-11	1.19334500E-8	2.32000000E+2	8.93985080E-5
1.75262900E+6	7.29988247E+2	0.00000000E+0	0.00000000E+0	2.72200000E-11	1.20458900E-8	1.88000000E+2	8.94593077E-5
1.75724200E+6	7.34991741E+2	0.00000000E+0	0.00000000E+0	2.96900000E-11	1.20532200E-8	1.85000000E+2	8.90737431E-5
1.76197900E+6	7.39988936E+2	0.00000000E+0	0.00000000E+0	2.81100000E-11	1.21732800E-8	1.82000000E+2	8.92115908E-5
1.76673400E+6	7.45015861E+2	0.00000000E+0	0.00000000E+0	2.76000000E-11	1.22376000E-8	1.74000000E+2	8.94021647E-5
1.77134600E+6	7.50017323E+2	0.00000000E+0	0.00000000E+0	2.81700000E-11	1.23228100E-8	1.93000000E+2	8.93253820E-5
1.77578400E+6	7.54996785E+2	0.00000000E+0	0.00000000E+0	2.88700000E-11	1.24585100E-8	2.12000000E+2	8.93119859E-5
1.78023200E+6	7.59998394E+2	0.00000000E+0	0.00000000E+0	2.97900000E-11	1.25997600E-8	2.00000000E+2	8.93200891E-5
1.78470000E+6	7.65010906E+2	0.00000000E+0	0.00000000E+0	3.00100000E-11	1.26206500E-8	1.93000000E+2	8.90788006E-5
1.78916300E+6	7.69987686E+2	0.00000000E+0	0.00000000E+0	3.01300000E-11	1.25827700E-8	2.00000000E+2	8.94449370E-5
1.79359900E+6	7.74999957E+2	0.00000000E+0	0.00000000E+0	3.01900000E-11	1.25843100E-8	1.74000000E+2	8.92308044E-5
1.79804600E+6	7.79992251E+2	0.00000000E+0	0.00000000E+0	3.05600000E-11	1.26665300E-8	2.32000000E+2	8.92189341E-5
1.80248000E+6	7.84998778E+2	0.00000000E+0	0.00000000E+0	3.07800000E-11	1.28005300E-8	1.85000000E+2	8.93782067E-5
1.80689400E+6	7.90001521E+2	0.00000000E+0	0.00000000E+0	3.11200000E-11	1.28876100E-8	2.10000000E+2	8.94568163E-5
1.81139300E+6	7.95010803E+2	0.00000000E+0	0.00000000E+0	3.13400000E-11	1.28890800E-8	2.09000000E+2	8.91515331E-5
1.81584500E+6	8.00005621E+2	0.00000000E+0	0.00000000E+0	3.14400000E-11	1.28357100E-8	2.21000000E+2	8.92863291E-5
1.82029500E+6	8.05002853E+2	0.00000000E+0	0.00000000E+0	3.14100000E-11	1.27315600E-8	1.98000000E+2	8.92771052E-5
1.82477900E+6	8.09992199E+2	0.00000000E+0	0.00000000E+0	3.14600000E-11	1.25874700E-8	1.98000000E+2	8.92000007E-5
1.82920500E+6	8.15003237E+2	0.00000000E+0	0.00000000E+0	3.13700000E-11	1.24168000E-8	2.27000000E+2	8.92732727E-5
1.83363700E+6	8.19982087E+2	0.00000000E+0	0.00000000E+0	3.13100000E-11	1.22490700E-8	2.27000000E+2	8.91575979E-5
1.83807600E+6	8.25003654E+2	0.00000000E+0	0.00000000E+0	3.12600000E-11	1.21040500E-8	2.12000000E+2	8.91119765E-5
1.84250400E+6	8.30007175E+2	0.00000000E+0	0.00000000E+0	3.11100000E-11	1.19764000E-8	1.74000000E+2	8.90382605E-5
1.84695000E+6	8.34972063E+2	0.00000000E+0	0.00000000E+0	3.12000000E-11	1.18339800E-8	2.16000000E+2	8.90884208E-5
1.85136300E+6	8.39993550E+2	0.00000000E+0	0.00000000E+0	3.10300000E-11	1.16689900E-8	2.06000000E+2	8.91967314E-5
1.85654000E+6	8.45011331E+2	0.00000000E+0	0.00000000E+0	3.07600000E-11	1.14910200E-8	1.80000000E+2	8.93160479E-5
1.86095000E+6	8.50022567E+2	0.00000000E+0	0.00000000E+0	3.11900000E-11	1.13146400E-8	1.96000000E+2	8.91469257E-5
1.86479500E+6	8.55006938E+2	0.00000000E+0	0.00000000E+0	3.06900000E-11	1.11338300E-8	1.66000000E+2	8.92635839E-5
1.86869800E+6	8.59994248E+2	0.00000000E+0	0.00000000E+0	3.07900000E-11	1.09773000E-8	1.92000000E+2	8.91624378E-5
1.87254900E+6	8.65008075E+2	0.00000000E+0	0.00000000E+0	3.09400000E-11	1.08388300E-8	1.97000000E+2	8.96376985E-5
1.87638700E+6	8.70006149E+2	0.00000000E+0	0.00000000E+0	3.11200000E-11	1.06828900E-8	2.06000000E+2	8.93443780E-5
1.88024500E+6	8.74995745E+2	0.00000000E+0	0.00000000E+0	3.12200000E-11	1.05227900E-8	1.63000000E+2	8.93887418E-5
1.88412000E+6	8.79999182E+2	0.00000000E+0	0.00000000E+0	3.12800000E-11	1.03581200E-8	2.24000000E+2	8.95167487E-5
1.88800600E+6	8.85005796E+2	0.00000000E+0	0.00000000E+0	3.13800000E-11	1.01956300E-8	2.20000000E+2	8.94383358E-5
1.89192400E+6	8.90001776E+2	0.00000000E+0	0.00000000E+0	3.10600000E-11	1.00443100E-8	1.81000000E+2	8.96642166E-5
1.89580300E+6	8.94996162E+2	0.00000000E+0	0.00000000E+0	3.11700000E-11	9.89018000E-9	2.16000000E+2	8.90934544E-5
1.89965500E+6	8.99996546E+2	0.00000000E+0	0.00000000E+0	3.13200000E-11	9.73504000E-9	1.85000000E+2	8.92420219E-5
1.90351800E+6	9.04998153E+2	0.00000000E+0	0.00000000E+0	3.12200000E-11	9.57985000E-9	2.03000000E+2	8.92898189E-5
1.90737500E+6	9.10015834E+2	0.00000000E+0	0.00000000E+0	3.11700000E-11	9.42324000E-9	1.88000000E+2	8.96483230E-5
1.91121700E+6	9.14992968E+2	0.00000000E+0	0.00000000E+0	3.11000000E-11	9.26760000E-9	2.00000000E+2	8.93600868E-5
1.91502800E+6	9.20007800E+2	0.00000000E+0	0.00000000E+0	3.10400000E-11	9.11224000E-9	2.00000000E+2	8.91944336E-5
1.91889300E+6	9.24992822E+2	0.00000000E+0	0.00000000E+0	3.09100000E-11	8.95324000E-9	2.02000000E+2	8.93003034E-5
1.92275100E+6	9.29997184E+2	0.00000000E+0	0.00000000E+0	3.08800000E-11	8.79510000E-9	1.89000000E+2	8.92169045E-5
1.92659800E+6	9.35009598E+2	0.00000000E+0	0.00000000E+0	3.06500000E-11	8.63016000E-9	2.00000000E+2	8.92473297E-5
1.93051800E+6	9.39991809E+2	0.00000000E+0	0.00000000E+0	3.05500000E-11	8.45572000E-9	1.74000000E+2	8.94254940E-5
1.93434600E+6	9.44989631E+2	0.00000000E+0	0.00000000E+0	3.01600000E-11	8.25749000E-9	1.90000000E+2	8.91500609E-5
1.93821300E+6	9.50014854E+2	0.00000000E+0	0.00000000E+0	3.00100000E-11	8.10111000E-9	1.87000000E+2	8.92972993E-5
1.94192800E+6	9.54998767E+2	0.00000000E+0	0.00000000E+0	2.97700000E-11	7.93695000E-9	2.04000000E+2	8.91685533E-5
1.94565000E+6	9.59990030E+2	0.00000000E+0	0.00000000E+0	2.94500000E-11	7.77541000E-9	1.73000000E+2	8.93881577E-5
1.94939300E+6	9.65004432E+2	0.00000000E+0	0.00000000E+0	2.94300000E-11	7.62108000E-9	1.69000000E+2	8.96507579E-5
1.95310800E+6	9.70011623E+2	0.00000000E+0	0.00000000E+0	2.91800000E-11	7.47985000E-9	1.75000000E+2	8.95750659E-5
1.95680000E+6	9.75002973E+2	0.00000000E+0	0.00000000E+0	2.89800000E-11	7.34971000E-9	1.86000000E+2	8.93147724E-5
1.96049700E+6	9.80011175E+2	0.00000000E+0	0.00000000E+0	2.87800000E-11	7.22758000E-9	1.68000000E+2	8.95396220E-5
1.96421300E+6	9.85000519E+2	0.00000000E+0	0.00000000E+0	2.86100000E-11	7.10806000E-9	1.71000000E+2	8.94079524E-5
1.96793100E+6	9.89989132E+2	0.00000000E+0	0.00000000E+0	2.83500000E-11	6.98594000E-9	1.70000000E+2	8.93036502E-5
1.97168900E+6	9.94996537E+2	0.00000000E+0	0.00000000E+0	2.80500000E-11	6.86673000E-9	1.81000000E+2	8.94519346E-5
1.97540200E+6	1.00000652E+3	0.00000000E+0	0.00000000E+0	2.81600000E-11	6.75280000E-9	1.55000000E+2	8.94409793E-5
1.97909400E+6	1.00499628E+3	0.00000000E+0	0.00000000E+0	2.79000000E-11	6.63749000E-9	1.85000000E+2	8.93214541E-5
1.98284700E+6	1.01000379E+3	0.00000000E+0	0.00000000E+0	2.76600000E-11	6.52414000E-9	1.66000000E+2	8.92302679E-5
1.98654500E+6	1.01500931E+3	0.00000000E+0	0.00000000E+0	2.74900000E-11	6.41072000E-9	1.68000000E+2	8.93926429E-5
1.99026500E+6	1.01999518E+3	0.00000000E+0	0.00000000E+0	2.71700000E-11	6.30259000E-9	1.50000000E+2	8.96169024E-5
1.99404900E+6	1.02498699E+3	0.00000000E+0	0.00000000E+0	2.70300000E-11	6.20027000E-9	1.74000000E+2	8.94137459E-5
1.99773700E+6	1.03000661E+3	0.00000000E+0	0.00000000E+0	2.68700000E-11	6.09984000E-9	1.68000000E+2	8.93326717E-5
2.00145300E+6	1.03500471E+3	0.00000000E+0	0.00000000E+0	2.64900000E-11	5.99579000E-9	1.50000000E+2	8.95289140E-5
2.00520600E+6	1.04000038E+3	0.00000000E+0	0.00000000E+0	2.62200000E-11	5.88853000E-9	1.62000000E+2	8.92424571E-5
2.00894100E+6	1.04501402E+3	0.00000000E+0	0.00000000E+0	2.58800000E-11	5.77951000E-9	1.60000000E+2	8.96309572E-5
2.01265600E+6	1.04998673E+3	0.00000000E+0	0.00000000E+0	2.55100000E-11	5.66907000E-9	1.75000000E+2	8.93243688E-5
2.01668100E+6	1.05499373E+3	0.00000000E+0	0.00000000E+0	2.52700000E-11	5.59575000E-9	1.64000000E+2	8.91667115E-5
2.02082700E+6	1.05998524E+3	0.00000000E+0	0.00000000E+0	2.52200000E-11	5.51395000E-9	1.50000000E+2	8.91336041E-5
2.02494500E+6	1.06499756E+3	0.00000000E+0	0.00000000E+0	2.48900000E-11	5.43259000E-9	1.44000000E+2	8.92678725E-5
2.02910900E+6	1.07002040E+3	0.00000000E+0	0.00000000E+0	2.45100000E-11	5.33936000E-9	1.62000000E+2	8.88291763E-5
2.03322200E+6	1.07499994E+3	0.00000000E+0	0.00000000E+0	2.42400000E-11	5.24439000E-9	1.39000000E+2	8.89837550E-5
2.03735500E+6	1.08002359E+3	0.00000000E+0	0.00000000E+0	2.38500000E-11	5.14213000E-9	1.36000000E+2	8.93859582E-5
2.04143300E+6	1.08499370E+3	0.00000000E+0	0.00000000E+0	2.37000000E-11	5.03146000E-9	1.42000000E+2	8.91556518E-5
2.04561100E+6	1.09000677E+3	0.00000000E+0	0.00000000E+0	2.33700000E-11	4.93180000E-9	1.37000000E+2	8.94128966E-5
2.05056800E+6	1.09498300E+3	0.00000000E+0	0.00000000E+0	2.27500000E-11	4.84128000E-9	1.23000000E+2	8.95227509E-5
2.05469400E+6	1.10000388E+3	0.00000000E+0	0.00000000E+0	2.24700000E-11	4.75238000E-9	1.40000000E+2	8.91765313E-5
2.05881200E+6	1.10499540E+3	0.00000000E+0	0.00000000E+0	2.20100000E-11	4.66270000E-9	1.50000000E+2	8.90851246E-5
2.06297200E+6	1.11001007E+3	0.00000000E+0	0.00000000E+0	2.16400000E-11	4.57398000E-9	1.44000000E+2	8.93471049E-5
2.06711300E+6	1.11499960E+3	0.00000000E+0	0.00000000E+0	2.12400000E-11	4.48632000E-9	1.33000000E+2	8.90608596E-5
2.07126000E+6	1.11998959E+3	0.00000000E+0	0.00000000E+0	2.08000000E-11	4.39831000E-9	1.21000000E+2	8.94283103E-5
2.07538500E+6	1.12502918E+3	0.00000000E+0	0.00000000E+0	2.02400000E-11	4.31074000E-9	1.21000000E+2	8.92077642E-5
2.07951400E+6	1.12996357E+3	0.00000000E+0	0.00000000E+0	1.99900000E-11	4.23598000E-9	1.20000000E+2	8.94773739E-5
2.08364800E+6	1.13500486E+3	0.00000000E+0	0.00000000E+0	1.95500000E-11	4.15582000E-9	1.22000000E+2	8.97091168E-5
2.08778600E+6	1.13999747E+3	0.00000000E+0	0.00000000E+0	1.92300000E-11	4.06537000E-9	1.21000000E+2	8.94724923E-5
2.09193600E+6	1.14499421E+3	0.00000000E+0	0.00000000E+0	1.88100000E-11	3.97335000E-9	1.20000000E+2	8.94357847E-5
2.09609100E+6	1.15000265E+3	0.00000000E+0	0.00000000E+0	1.82200000E-11	3.87891000E-9	1.05000000E+2	8.95059126E-5
2.10022900E+6	1.15498182E+3	0.00000000E+0	0.00000000E+0	1.77200000E-11	3.77487000E-9	1.05000000E+2	8.93965858E-5
2.10437200E+6	1.16001061E+3	0.00000000E+0	0.00000000E+0	1.68200000E-11	3.62877000E-9	1.00000000E+2	8.95923513E-5
2.10852600E+6	1.16501358E+3	0.00000000E+0	0.00000000E+0	1.59600000E-11	3.43328000E-9	9.00000000E+1	8.92486768E-5
2.11266800E+6	1.16997911E+3	0.00000000E+0	0.00000000E+0	1.48300000E-11	3.23488000E-9	9.10000000E+1	8.95182984E-5
2.11682800E+6	1.17501669E+3	0.00000000E+0	0.00000000E+0	1.40300000E-11	3.03680000E-9	9.00000000E+1	8.94567388E-5
2.12097600E+6	1.18002078E+3	0.00000000E+0	0.00000000E+0	1.29300000E-11	2.83994000E-9	8.10000000E+1	8.96135795E-5
2.12513200E+6	1.18498032E+3	0.00000000E+0	0.00000000E+0	1.19400000E-11	2.64793000E-9	7.40000000E+1	8.94924509E-5
2.12927300E+6	1.19001064E+3	0.00000000E+0	0.00000000E+0	1.10400000E-11	2.45816000E-9	5.90000000E+1	8.96672296E-5
2.13341600E+6	1.19501809E+3	0.00000000E+0	0.00000000E+0	1.01500000E-11	2.27263000E-9	4.60000000E+1	8.93799084E-5
2.13756700E+6	1.19997893E+3	0.00000000E+0	0.00000000E+0	9.24000000E-12	2.09127000E-9	3.60000000E+1	8.94624996E-5
