G:\BEAR_storage\User_Experiments\20220317_arneodo\file(1)_Region 6__0054.txt
Ring Energy (GeV): 2
Lifetime (hours): 15.3095
Scan beginning: 3/19/2022	2:58:15 PM
Ring current (mA): 308.49
Source position: x (mm): -0.004 x' (mrad): 0.001 y (mm): 0.005 y' (mrad): 0.006
Scan end: 3/19/2022	4:02:35 PM
Ring current (mA): 308.3
Source position: x (mm): -0.005 x' (mrad): 0.003 y (mm): 0.004 y' (mrad): 0.006

SCAN TYPE: PHOTON ENERGY VS VAR_1 VS VAR_2

FILE INFO: FILE INFO:

SCAN PARAMETERS
waiting time (ms): 0
Number of scans: 1
Current scan number: 1
DARK OFF 
PREDARK OFF 

SCAN PARAMETERS
Regions configuration: 
number of regions: 8
Mirror grating scan: on
Timed acquisition: off
Region 1:
Initial energy (eV): 48.500000
Final energy (eV): 50.500000
Delta energy (eV): 0.100000
Deviation angle choice: Degrees: 
Deviation angle (°): NaN
Si filter
G1200 channel
range keithley B 20 nA
range keithley C 2 uA
range keithley A 20 nA
Var_1: PsiC 0.000000
Var_2: PhiM0.000000
Bias CEM (V): 0.000000
Bias Keithley B (V): 0.000000
Name region: 
Region 2:
Initial energy (eV): 71.000000
Final energy (eV): 74.000000
Delta energy (eV): 0.100000
Deviation angle choice: Degrees: 
Deviation angle (°): NaN
Al filter
G1200 channel
range keithley B 20 nA
range keithley C 2 uA
range keithley A 20 nA
Var_1: PsiC 0.000000
Var_2: PhiM0.000000
Bias CEM (V): 0.000000
Bias Keithley B (V): 0.000000
Name region: 
Region 3:
Initial energy (eV): 97.000000
Final energy (eV): 102.000000
Delta energy (eV): 0.100000
Deviation angle choice: Degrees: 
Deviation angle (°): NaN
Si filter
G1200 channel
range keithley B 20 nA
range keithley C 2 uA
range keithley A 20 nA
Var_1: PsiC 0.000000
Var_2: PhiM0.000000
Bias CEM (V): 0.000000
Bias Keithley B (V): 0.000000
Name region: 
Region 4:
Initial energy (eV): 272.000000
Final energy (eV): 295.000000
Delta energy (eV): 0.100000
Deviation angle choice: Degrees: 
Deviation angle (°): NaN
filter Ag 0.6 um
G1200 channel
range keithley B 200 pA
range keithley C 2 uA
range keithley A 200 pA
Var_1: PsiC 0.000000
Var_2: PhiM0.000000
Bias CEM (V): 0.000000
Bias Keithley B (V): 0.000000
Name region: 
Region 5:
Initial energy (eV): 380.000000
Final energy (eV): 405.000000
Delta energy (eV): 0.100000
Deviation angle choice: Degrees: 
Deviation angle (°): NaN
Full Beam
G1200 channel
range keithley B 200 pA
range keithley C 2 uA
range keithley A 20 nA
Var_1: PsiC 0.000000
Var_2: PhiM0.000000
Bias CEM (V): 0.000000
Bias Keithley B (V): 0.000000
Name region: 
Region 6:
Initial energy (eV): 500.000000
Final energy (eV): 530.000000
Delta energy (eV): 0.100000
Deviation angle choice: Degrees: 
Deviation angle (°): NaN
Full Beam
G1200 channel
range keithley B 200 pA
range keithley C 2 uA
range keithley A 20 nA
Var_1: PsiC 0.000000
Var_2: PhiM0.000000
Bias CEM (V): 0.000000
Bias Keithley B (V): 0.000000
Name region: 
Region 7:
Initial energy (eV): 700.000000
Final energy (eV): 715.000000
Delta energy (eV): 0.100000
Deviation angle choice: Degrees: 
Deviation angle (°): NaN
Full Beam
G1200 channel
range keithley B 200 pA
range keithley C 2 uA
range keithley A 20 nA
Var_1: PsiC 0.000000
Var_2: PhiM0.000000
Bias CEM (V): 0.000000
Bias Keithley B (V): 0.000000
Name region: 
Region 8:
Initial energy (eV): 1450.000000
Final energy (eV): 1600.000000
Delta energy (eV): 0.100000
Deviation angle choice: Degrees: 
Deviation angle (°): NaN
filter Ag 0.6 um
G1200 channel
range keithley B 200 pA
range keithley C 2 uA
range keithley A 200 pA
Var_1: PsiC 0.000000
Var_2: PhiM0.000000
Bias CEM (V): 0.000000
Bias Keithley B (V): 0.000000
Name region: 

BEAR MONOCHROMATOR CONFIGURATION: 
Current Grating Position:     -236072.10
Current Mirror Position: 2557.0
Current Grating: G1200
P2 phiz position:  0.0000
Mono axis position: 25.0000
Current Photon Energy (eV): 40.000
Current Deviation Angle: 155.000
Vertical Exit Slits (um): 100.000
Exit slit y axis position: 1.3625
Horizontal Exit Slits (um):  889.156
Exit slit z axis position: 1.9229
Mitutoyo position (mm): 

Dose on sample (mJ/cm^2): NaN

ENERGY CALIBRATION:
offset grating G1200: yes
Delta 0 order G1200:  -800.0
offset grating G1800: not
Delta 0 order G1800:  0.0
offset grating GNIM: not
Delta 0 order GNIM:  0.0
ZERO ORDER POSITIONS:
Grating G1200: Mirror position:  4938.0
Grating position: -105355.0
Grating G1800: 
Mirror position:  4938.0
Grating position: -106345.0
Grating GNIM: 
Mirror position:  10000.0
Grating position: 227300.0

Initial filter: Al filter

EXPERIMENTAL CHAMBER CONFIGURATION: 
PsiC (deg):   -0.000186
Phi Analyzer (degrees): 89.992308
Theta Manipulator (degrees): -44.000040
Theta Analyzer (degrees): -135.001450
PhiM (degrees): -0.004103
XM (mm): 0.000388
YM (mm): 19.932987
ZM (mm): (Warning: for kinetic energy scans, 
this parameter is given in the scan settings) 
-6.601438
TiltM (°): 0.000138

ELECTRON ANALYZER CONFIGURATION: 
Current Kinetik energy (eV): 35.0
Mode: DE = COST
Pass Energy (eV):  50.000
CEM: ON
Bias Front-Back CEM (V): 3499.561
Bias Back-Collector CEM (V): 100.874
Bias Retard-Front CEM: 100.087COIL VALUES
Ix (amps):2.820
Iy (amps): 6.789
Iz (amps): 37.337

POLARIZATION SELECTOR CONFIGURATION:
Psi1 (rad): -0.001665535
Psi2 (rad): 0.001417093
Z min position (mm): 46.599650
DZ position (mm): 18.599100
Zmin 0 (mm): 66.500000
DZ0 (mm): 53.000000

BEAM SELECTOR CONFIGURATION:
Zmin position (mm): NaN
DZ position (mm): NaN
Y+ position (mm): NaN
Y- position (mm): NaN

CHANNEL ELECTRON MULTIPLIER CONFIGURATION:
CEM configured: OFF
Bias CEM: 0.000000

FLUORESCENCE DETECTOR CONFIGURATION:
Not configured

LUMINESCENCE MONOCHROMATOR CONFIGURATION:
Optical fiber position (mm): 0.000000
Optical fiber Switch inside: OFF
Optical fiber Switch outside: ON
Monochromator wavelength (A): 0.000000
Limit Switches: ON

I0 MONITOR PARAMETERS:
I0 detector position(mm): -1.924999E+2
Lower switch: OFF
Upper switch: OFF
Valve status:open

PRESSURE PARAMETERS:
Monitor chamber pressure (mbar): 8.588e-10
Experimental chamber pressure -ION GAUGE-(mbar): 0.000000E+0

XMCD PARAMETERS:
Xmcd OFF
Xmcd Direction -
Xmcd current (A): 0.000000

Gated scan off

Instrument 1: AMMETER KEITHLEY 6517A B
Measure type: Current
range type: set range value
range value (ampere):  200 pA
Integration time:  set NPLC value
NPLC value: 10.000
Digital filter count: 2
SAMPLE BIAS (V): -30.000
Vsource: ON
Output Voltage value: 30.000
Vsource range: 1000 V

Range Keithley B changed to 20 nA

Range Keithley B changed to 200 pA

Range Keithley B changed to 20 nA

Range Keithley B changed to 200 pA

Range Keithley B changed to 20 nA

Range Keithley B changed to 200 pA

Range Keithley B changed to 20 nA

Range Keithley B changed to 200 nA

Range Keithley B changed to 200 pA

Range Keithley B changed to 20 nA

Range Keithley B changed to 200 pA

Range Keithley B changed to 20 nA

Range Keithley B changed to 200 pA

Range Keithley B changed to 20 nA

Range Keithley B changed to 200 pA

Range Keithley B changed to 20 nA

Range Keithley B changed to 200 pA

Range Keithley B changed to 20 nA

Range Keithley B changed to 200 pA

Range Keithley B changed to 20 nA

Range Keithley B changed to 200 pA

Range Keithley B changed to 20 nA

Range Keithley B changed to 200 pA

Range Keithley B changed to 20 nA

Range Keithley B changed to 200 pA

Range Keithley B changed to 20 nA

Range Keithley B changed to 200 pA

Range Keithley B changed to 20 nA

Range Keithley B changed to 200 pA

Range Keithley B changed to 20 nA

Range Keithley B changed to 200 pA

Range Keithley B changed to 20 nA

Range Keithley B changed to 200 pA

Range Keithley B changed to 20 nA

Range Keithley B changed to 200 pA

Range Keithley B changed to 20 nA

Range Keithley B changed to 200 pA

Range Keithley B changed to 20 nA

Range Keithley B changed to 200 pA

Range Keithley B changed to 20 nA

Keithley B Bias (V) changed to: 0.000000

Range Keithley B changed to 200 pA

Instrument 2: AMMETER KEITHLEY 6517A A
Measure type: Current
range type: set range value
range value (ampere):  200 nA
Integration time:  set NPLC value
NPLC value: 10.000
Digital filter count: 2
Vsource: OFF
Output Voltage value: -0.000
Vsource range: 100 V
Trigger source: bus

Range Keithley A changed to 20 nA

Range Keithley A changed to 200 nA

Range Keithley A changed to 200 pA

Range Keithley A changed to 20 nA

Range Keithley A changed to 200 pA

Range Keithley A changed to 20 nA

Range Keithley A changed to 200 nA

Range Keithley A changed to 200 pA

Range Keithley A changed to 20 nA

Range Keithley A changed to 200 pA

Range Keithley A changed to 20 nA

Range Keithley A changed to 200 nA

Range Keithley A changed to 200 pA

Range Keithley A changed to 20 nA

Range Keithley A changed to 200 pA

Range Keithley A changed to 20 nA

Range Keithley A changed to 200 pA

Range Keithley A changed to 20 nA

Range Keithley A changed to 200 pA

Range Keithley A changed to 20 nA

Range Keithley A changed to 200 pA

Range Keithley A changed to 20 nA

Range Keithley A changed to 200 nA

Range Keithley A changed to 200 pA

Range Keithley A changed to 20 nA

Range Keithley A changed to 200 pA

Range Keithley A changed to 20 nA

Range Keithley A changed to 200 nA

Range Keithley A changed to 200 pA

Range Keithley A changed to 20 nA

Range Keithley A changed to 200 nA

Range Keithley A changed to 200 pA

Range Keithley A changed to 20 nA

Range Keithley A changed to 200 pA

Range Keithley A changed to 20 nA

Range Keithley A changed to 200 pA

Range Keithley A changed to 20 nA

Range Keithley A changed to 200 nA

Range Keithley A changed to 200 pA

Range Keithley A changed to 20 nA

Range Keithley A changed to 200 pA

Range Keithley A changed to 20 nA

Range Keithley A changed to 200 nA

Range Keithley A changed to 20 nA

Range Keithley A changed to 200 nA

Range Keithley A changed to 200 pA

Range Keithley A changed to 20 nA

Range Keithley A changed to 200 nA

Range Keithley A changed to 2 uA

Range Keithley A changed to 20 nA

Range Keithley A changed to 200 nA

Range Keithley A changed to 2 uA

Range Keithley A changed to 20 nA

Range Keithley A changed to 200 nA

Range Keithley A changed to 200 pA

Range Keithley A changed to 2 uA

Range Keithley A changed to 20 nA

Range Keithley A changed to 200 nA

Range Keithley A changed to 200 pA

Range Keithley A changed to 20 nA

Range Keithley A changed to 2 uA

Range Keithley A changed to 20 nA

Range Keithley A changed to 200 nA

Range Keithley A changed to 20 nA

Range Keithley A changed to 200 nA

Range Keithley A changed to 200 pA

Range Keithley A changed to 2 uA

Range Keithley A changed to 20 nA

Range Keithley A changed to 200 nA

Range Keithley A changed to 20 nA

Range Keithley A changed to 200 nA

Range Keithley A changed to 200 pA

Range Keithley A changed to 20 nA

Range Keithley A changed to 200 nA

Range Keithley A changed to 20 nA

Range Keithley A changed to 200 nA

Range Keithley A changed to 200 pA

Range Keithley A changed to 20 nA

Range Keithley A changed to 200 nA

Range Keithley A changed to 200 pA

Range Keithley A changed to 20 nA

Range Keithley A changed to 200 pA

Range Keithley A changed to 20 nA

Range Keithley A changed to 200 pA

Range Keithley A changed to 20 nA

Range Keithley A changed to 200 pA

Range Keithley A changed to 20 nA

Instrument 3: AMMETER KEITHLEY 6517A C 
Measure type: Current
range type: set range value
range value (ampere):  2 uA
Integration time:  set NPLC value
NPLC value: 10.000
Digital filter count: 2
Vsource: OFF
Output Voltage value: -0.000
Vsource range: 100 V
Trigger source: bus


Range Keithley C changed to 20 uA


Range Keithley C changed to 2 uA


Range Keithley C changed to 200 uA


Range Keithley C changed to 2 uA


Range Keithley C changed to 20 uA


Range Keithley C changed to 200 uA


Range Keithley C changed to 2 uA


Range Keithley C changed to 20 uA


Range Keithley C changed to 2 uA


Range Keithley C changed to 20 uA


Range Keithley C changed to 200 uA


Range Keithley C changed to 2 uA


Range Keithley C changed to 20 uA


Range Keithley C changed to 2 uA


Range Keithley C changed to 20 uA


Range Keithley C changed to 2 uA


Range Keithley C changed to 20 uA


Range Keithley C changed to 2 uA


________________________________________________________________________________

RelativeTime (msec)	Photon Energy	Var_1	Var_2	INSTR_1_Sample grounded_(ampere ) 	INSTR_2_Monitor IM_(ampere)  	INSTR_3_Ortec 996 counts_(ampere)	I_BPM_sum (Amps)	
________________________________________________________________________________

2.59857200E+6	4.99994821E+2	0.00000000E+0	0.00000000E+0	-4.37200000E-13	1.71678600E-8	1.02000000E+2	8.91346084E-5
2.60380300E+6	5.00105485E+2	0.00000000E+0	0.00000000E+0	-5.53600000E-13	1.71599300E-8	1.01000000E+2	8.91161220E-5
2.60786800E+6	5.00200305E+2	0.00000000E+0	0.00000000E+0	-5.42400000E-13	1.71546400E-8	9.50000000E+1	8.89929579E-5
2.61189800E+6	5.00289440E+2	0.00000000E+0	0.00000000E+0	-5.18400000E-13	1.71487000E-8	1.00000000E+2	8.92675447E-5
2.61594500E+6	5.00410500E+2	0.00000000E+0	0.00000000E+0	-4.64400000E-13	1.71431400E-8	1.00000000E+2	8.85305719E-5
2.61998600E+6	5.00493245E+2	0.00000000E+0	0.00000000E+0	-4.48000000E-13	1.71384100E-8	1.08000000E+2	8.91280638E-5
2.62401200E+6	5.00600741E+2	0.00000000E+0	0.00000000E+0	-3.97600000E-13	1.71329000E-8	9.70000000E+1	8.89807897E-5
2.62808600E+6	5.00706150E+2	0.00000000E+0	0.00000000E+0	-4.03500000E-13	1.71284500E-8	1.01000000E+2	8.91194301E-5
2.63211500E+6	5.00793364E+2	0.00000000E+0	0.00000000E+0	-3.58600000E-13	1.71235700E-8	1.02000000E+2	8.92692643E-5
2.63615300E+6	5.00911365E+2	0.00000000E+0	0.00000000E+0	-4.21800000E-13	1.71185900E-8	1.23000000E+2	8.87597965E-5
2.64020200E+6	5.00992915E+2	0.00000000E+0	0.00000000E+0	-4.74800000E-13	1.71139300E-8	9.60000000E+1	8.90948402E-5
2.64425300E+6	5.01102555E+2	0.00000000E+0	0.00000000E+0	-5.04800000E-13	1.71085100E-8	1.17000000E+2	8.88111965E-5
2.64830400E+6	5.01199946E+2	0.00000000E+0	0.00000000E+0	-4.66700000E-13	1.71042100E-8	1.05000000E+2	8.90295105E-5
2.65231800E+6	5.01291348E+2	0.00000000E+0	0.00000000E+0	-4.01600000E-13	1.70987100E-8	8.00000000E+1	8.87355284E-5
2.65636000E+6	5.01415305E+2	0.00000000E+0	0.00000000E+0	-4.49600000E-13	1.70944600E-8	8.60000000E+1	8.92254131E-5
2.66054400E+6	5.01489341E+2	0.00000000E+0	0.00000000E+0	-3.51000000E-13	1.70896800E-8	1.00000000E+2	8.89592277E-5
2.66532900E+6	5.01603105E+2	0.00000000E+0	0.00000000E+0	-3.93300000E-13	1.70837300E-8	9.90000000E+1	8.89093952E-5
2.66945500E+6	5.01698134E+2	0.00000000E+0	0.00000000E+0	-4.44400000E-13	1.70798700E-8	8.40000000E+1	8.87238072E-5
2.67360700E+6	5.01797886E+2	0.00000000E+0	0.00000000E+0	-3.25800000E-13	1.70741600E-8	9.80000000E+1	8.93878119E-5
2.67773000E+6	5.01905035E+2	0.00000000E+0	0.00000000E+0	-4.33100000E-13	1.70695500E-8	1.03000000E+2	8.88124602E-5
2.68184400E+6	5.01997880E+2	0.00000000E+0	0.00000000E+0	-3.95100000E-13	1.70646400E-8	9.80000000E+1	8.88983773E-5
2.68596800E+6	5.02099905E+2	0.00000000E+0	0.00000000E+0	-3.72000000E-13	1.70602200E-8	9.10000000E+1	8.85727154E-5
2.69008900E+6	5.02203595E+2	0.00000000E+0	0.00000000E+0	-4.41900000E-13	1.70545000E-8	9.70000000E+1	8.89057951E-5
2.69416300E+6	5.02299849E+2	0.00000000E+0	0.00000000E+0	-4.29200000E-13	1.70496100E-8	9.70000000E+1	8.89762210E-5
2.69829600E+6	5.02403954E+2	0.00000000E+0	0.00000000E+0	-4.52000000E-13	1.70449400E-8	9.00000000E+1	8.86672692E-5
2.70240500E+6	5.02485226E+2	0.00000000E+0	0.00000000E+0	-4.19700000E-13	1.70401500E-8	9.10000000E+1	8.91027259E-5
2.70646500E+6	5.02613903E+2	0.00000000E+0	0.00000000E+0	-4.47800000E-13	1.70343200E-8	9.10000000E+1	8.89310496E-5
2.71062300E+6	5.02691370E+2	0.00000000E+0	0.00000000E+0	-4.40800000E-13	1.70293200E-8	8.70000000E+1	8.90983747E-5
2.71477800E+6	5.02806061E+2	0.00000000E+0	0.00000000E+0	-3.89900000E-13	1.70240400E-8	1.06000000E+2	8.91684132E-5
2.71892000E+6	5.02895572E+2	0.00000000E+0	0.00000000E+0	-4.70300000E-13	1.70186200E-8	9.20000000E+1	8.86571155E-5
2.72301400E+6	5.03004935E+2	0.00000000E+0	0.00000000E+0	-3.30500000E-13	1.70140700E-8	1.11000000E+2	8.87611525E-5
2.72713700E+6	5.03099711E+2	0.00000000E+0	0.00000000E+0	-3.44300000E-13	1.70083600E-8	8.70000000E+1	8.87074397E-5
2.73127500E+6	5.03193279E+2	0.00000000E+0	0.00000000E+0	-4.24700000E-13	1.70039300E-8	8.80000000E+1	8.89773654E-5
2.73547200E+6	5.03309345E+2	0.00000000E+0	0.00000000E+0	-4.35500000E-13	1.69979000E-8	8.00000000E+1	8.88451474E-5
2.73962200E+6	5.03387350E+2	0.00000000E+0	0.00000000E+0	-4.10700000E-13	1.70033100E-8	1.00000000E+2	8.88982760E-5
2.74376500E+6	5.03511327E+2	0.00000000E+0	0.00000000E+0	-4.02800000E-13	1.70379500E-8	8.80000000E+1	8.92385023E-5
2.74793700E+6	5.03591027E+2	0.00000000E+0	0.00000000E+0	-4.40000000E-13	1.70530400E-8	9.70000000E+1	8.94282030E-5
2.75210700E+6	5.03711010E+2	0.00000000E+0	0.00000000E+0	-4.44200000E-13	1.70473800E-8	8.80000000E+1	8.89105486E-5
2.75618000E+6	5.03790220E+2	0.00000000E+0	0.00000000E+0	-3.86000000E-13	1.70415900E-8	1.03000000E+2	8.94424307E-5
2.76033500E+6	5.03909385E+2	0.00000000E+0	0.00000000E+0	-3.93200000E-13	1.70360000E-8	9.80000000E+1	8.91788827E-5
2.76447500E+6	5.03996700E+2	0.00000000E+0	0.00000000E+0	-3.85700000E-13	1.70302800E-8	9.80000000E+1	8.91738670E-5
2.76853200E+6	5.04102375E+2	0.00000000E+0	0.00000000E+0	-6.86900000E-13	1.70248000E-8	1.05000000E+2	8.90941607E-5
2.77260300E+6	5.04198044E+2	0.00000000E+0	0.00000000E+0	-5.44400000E-13	1.70185400E-8	9.80000000E+1	8.92155277E-5
2.77668500E+6	5.04297823E+2	0.00000000E+0	0.00000000E+0	-5.37200000E-13	1.70123400E-8	1.09000000E+2	8.88028340E-5
2.78068900E+6	5.04403052E+2	0.00000000E+0	0.00000000E+0	-4.28400000E-13	1.70066200E-8	1.00000000E+2	8.93706577E-5
2.78474100E+6	5.04495692E+2	0.00000000E+0	0.00000000E+0	-4.05500000E-13	1.70003600E-8	1.00000000E+2	8.89109300E-5
2.78882100E+6	5.04608299E+2	0.00000000E+0	0.00000000E+0	-2.50200000E-13	1.69941500E-8	1.04000000E+2	8.90805976E-5
2.79292800E+6	5.04692390E+2	0.00000000E+0	0.00000000E+0	-1.52100000E-13	1.69881400E-8	8.60000000E+1	8.92693119E-5
2.79697800E+6	5.04809700E+2	0.00000000E+0	0.00000000E+0	-1.82600000E-13	1.69819600E-8	9.10000000E+1	8.91797142E-5
2.80108500E+6	5.04892753E+2	0.00000000E+0	0.00000000E+0	-3.49400000E-13	1.69755000E-8	7.90000000E+1	8.94152986E-5
2.80513500E+6	5.05009792E+2	0.00000000E+0	0.00000000E+0	-4.45200000E-13	1.69685200E-8	1.04000000E+2	8.89105992E-5
2.80925900E+6	5.05093246E+2	0.00000000E+0	0.00000000E+0	-3.86900000E-13	1.69623800E-8	1.05000000E+2	8.94198792E-5
2.81327400E+6	5.05210359E+2	0.00000000E+0	0.00000000E+0	-4.06700000E-13	1.69565300E-8	1.00000000E+2	8.90087681E-5
2.81731000E+6	5.05292325E+2	0.00000000E+0	0.00000000E+0	-4.58300000E-13	1.69496700E-8	8.90000000E+1	8.92892884E-5
2.82139100E+6	5.05401091E+2	0.00000000E+0	0.00000000E+0	-3.69800000E-13	1.69436400E-8	9.20000000E+1	8.88907449E-5
2.82546900E+6	5.05502261E+2	0.00000000E+0	0.00000000E+0	-4.22500000E-13	1.69366400E-8	1.03000000E+2	8.92241107E-5
2.82954100E+6	5.05601367E+2	0.00000000E+0	0.00000000E+0	-3.85200000E-13	1.69304400E-8	9.50000000E+1	8.87063758E-5
2.83357500E+6	5.05701055E+2	0.00000000E+0	0.00000000E+0	-3.98900000E-13	1.69232400E-8	1.00000000E+2	8.92857867E-5
2.83761600E+6	5.05794654E+2	0.00000000E+0	0.00000000E+0	-4.15300000E-13	1.69162700E-8	9.70000000E+1	8.91329037E-5
2.84169400E+6	5.05900435E+2	0.00000000E+0	0.00000000E+0	-3.95100000E-13	1.69094400E-8	1.16000000E+2	8.93261778E-5
2.84588000E+6	5.06003198E+2	0.00000000E+0	0.00000000E+0	-4.42600000E-13	1.69021600E-8	1.03000000E+2	8.92233895E-5
2.85013800E+6	5.06103378E+2	0.00000000E+0	0.00000000E+0	-3.44600000E-13	1.68952300E-8	8.30000000E+1	8.92160939E-5
2.85435700E+6	5.06200259E+2	0.00000000E+0	0.00000000E+0	-3.72700000E-13	1.68880900E-8	1.02000000E+2	8.91635673E-5
2.85853500E+6	5.06299724E+2	0.00000000E+0	0.00000000E+0	-4.67800000E-13	1.68810000E-8	8.50000000E+1	8.93288957E-5
2.86272200E+6	5.06401225E+2	0.00000000E+0	0.00000000E+0	-4.09000000E-13	1.68735400E-8	1.02000000E+2	8.91085493E-5
2.86693300E+6	5.06500661E+2	0.00000000E+0	0.00000000E+0	-3.86100000E-13	1.68663000E-8	1.00000000E+2	8.86161075E-5
2.87186000E+6	5.06599792E+2	0.00000000E+0	0.00000000E+0	-3.26400000E-13	1.68589700E-8	9.00000000E+1	8.87423085E-5
2.87607400E+6	5.06699303E+2	0.00000000E+0	0.00000000E+0	-2.83100000E-13	1.68510700E-8	1.21000000E+2	8.90929000E-5
2.88026800E+6	5.06800509E+2	0.00000000E+0	0.00000000E+0	-3.29500000E-13	1.68436900E-8	1.06000000E+2	8.90736597E-5
2.88441900E+6	5.06900647E+2	0.00000000E+0	0.00000000E+0	-3.50100000E-13	1.68362600E-8	1.00000000E+2	8.89640378E-5
2.88860200E+6	5.06997824E+2	0.00000000E+0	0.00000000E+0	-3.77700000E-13	1.68280900E-8	9.00000000E+1	8.93581706E-5
2.89281300E+6	5.07098037E+2	0.00000000E+0	0.00000000E+0	-4.39900000E-13	1.68201100E-8	9.20000000E+1	8.88670461E-5
2.89701700E+6	5.07200395E+2	0.00000000E+0	0.00000000E+0	-4.03100000E-13	1.68118700E-8	9.40000000E+1	8.87695359E-5
2.90121800E+6	5.07303792E+2	0.00000000E+0	0.00000000E+0	-3.93400000E-13	1.68038100E-8	1.06000000E+2	8.91597914E-5
2.90542400E+6	5.07397457E+2	0.00000000E+0	0.00000000E+0	-3.43400000E-13	1.67959000E-8	1.00000000E+2	8.90802788E-5
2.90963400E+6	5.07499375E+2	0.00000000E+0	0.00000000E+0	-3.61000000E-13	1.67880400E-8	9.60000000E+1	8.88398753E-5
2.91385800E+6	5.07600332E+2	0.00000000E+0	0.00000000E+0	-3.13200000E-13	1.67799600E-8	1.00000000E+2	8.88756381E-5
2.91805100E+6	5.07702882E+2	0.00000000E+0	0.00000000E+0	-5.72900000E-13	1.67707200E-8	1.00000000E+2	8.88589816E-5
2.92224900E+6	5.07797692E+2	0.00000000E+0	0.00000000E+0	-5.06200000E-13	1.67627700E-8	1.01000000E+2	8.88927327E-5
2.92644500E+6	5.07895845E+2	0.00000000E+0	0.00000000E+0	-3.29000000E-13	1.67539900E-8	9.30000000E+1	8.89006482E-5
2.93060600E+6	5.08000385E+2	0.00000000E+0	0.00000000E+0	-4.31200000E-13	1.67439600E-8	1.06000000E+2	8.89580117E-5
2.93484200E+6	5.08103521E+2	0.00000000E+0	0.00000000E+0	-4.06700000E-13	1.67363900E-8	1.07000000E+2	8.86800991E-5
2.93903500E+6	5.08198799E+2	0.00000000E+0	0.00000000E+0	-1.43100000E-13	1.67279900E-8	8.50000000E+1	8.88165848E-5
2.94320400E+6	5.08297013E+2	0.00000000E+0	0.00000000E+0	-1.71800000E-13	1.67182300E-8	8.30000000E+1	8.90718983E-5
2.94738100E+6	5.08404175E+2	0.00000000E+0	0.00000000E+0	-2.96200000E-13	1.67090500E-8	1.03000000E+2	8.88799147E-5
2.95157200E+6	5.08499024E+2	0.00000000E+0	0.00000000E+0	-3.89600000E-13	1.67008100E-8	9.50000000E+1	8.88748662E-5
2.95576300E+6	5.08597922E+2	0.00000000E+0	0.00000000E+0	-2.84900000E-13	1.66911800E-8	9.60000000E+1	8.87405710E-5
2.96002200E+6	5.08699201E+2	0.00000000E+0	0.00000000E+0	-3.97000000E-13	1.66802900E-8	9.80000000E+1	8.89198290E-5
2.96419700E+6	5.08804198E+2	0.00000000E+0	0.00000000E+0	-3.96600000E-13	1.66719600E-8	9.50000000E+1	8.88738619E-5
2.96838900E+6	5.08898659E+2	0.00000000E+0	0.00000000E+0	-3.13800000E-13	1.66630900E-8	8.30000000E+1	8.92271387E-5
2.97261200E+6	5.08994610E+2	0.00000000E+0	0.00000000E+0	-4.10400000E-13	1.66530900E-8	9.10000000E+1	8.88009654E-5
2.97681800E+6	5.09105306E+2	0.00000000E+0	0.00000000E+0	-2.79900000E-13	1.66771500E-8	8.20000000E+1	8.89683204E-5
2.98099300E+6	5.09200897E+2	0.00000000E+0	0.00000000E+0	-3.14000000E-13	1.66998800E-8	1.16000000E+2	8.93137740E-5
2.98519900E+6	5.09299538E+2	0.00000000E+0	0.00000000E+0	-3.13700000E-13	1.66891600E-8	9.80000000E+1	8.93124657E-5
2.98941200E+6	5.09400671E+2	0.00000000E+0	0.00000000E+0	-4.05600000E-13	1.66782600E-8	1.07000000E+2	8.91641753E-5
2.99360700E+6	5.09506418E+2	0.00000000E+0	0.00000000E+0	-3.17700000E-13	1.66693500E-8	1.05000000E+2	8.91302722E-5
2.99785300E+6	5.09596046E+2	0.00000000E+0	0.00000000E+0	-2.92000000E-13	1.66595100E-8	9.90000000E+1	8.92599749E-5
3.00204000E+6	5.09697981E+2	0.00000000E+0	0.00000000E+0	-3.22800000E-13	1.66474100E-8	8.80000000E+1	8.89383154E-5
3.00621800E+6	5.09804746E+2	0.00000000E+0	0.00000000E+0	-4.28700000E-13	1.66365600E-8	1.11000000E+2	8.92126190E-5
3.01036300E+6	5.09899139E+2	0.00000000E+0	0.00000000E+0	-3.63600000E-13	1.66264300E-8	9.80000000E+1	8.93713134E-5
3.01446900E+6	5.09996248E+2	0.00000000E+0	0.00000000E+0	-3.34300000E-13	1.66159300E-8	9.00000000E+1	8.93942194E-5
3.01853700E+6	5.10097408E+2	0.00000000E+0	0.00000000E+0	-3.43100000E-13	1.66052100E-8	1.02000000E+2	8.92402726E-5
3.02260000E+6	5.10206521E+2	0.00000000E+0	0.00000000E+0	-4.03000000E-13	1.65946700E-8	9.00000000E+1	8.90228765E-5
3.02685700E+6	5.10295708E+2	0.00000000E+0	0.00000000E+0	-4.06600000E-13	1.65842300E-8	9.50000000E+1	8.92177599E-5
3.03093300E+6	5.10405225E+2	0.00000000E+0	0.00000000E+0	-3.87600000E-13	1.65730500E-8	1.09000000E+2	8.92142432E-5
3.03513500E+6	5.10498288E+2	0.00000000E+0	0.00000000E+0	-3.51200000E-13	1.65627600E-8	9.50000000E+1	8.89828192E-5
3.03922900E+6	5.10604307E+2	0.00000000E+0	0.00000000E+0	-3.22100000E-13	1.65519100E-8	8.90000000E+1	8.88077305E-5
3.04344500E+6	5.10694195E+2	0.00000000E+0	0.00000000E+0	-3.43900000E-13	1.65409600E-8	9.10000000E+1	8.91235219E-5
3.04764400E+6	5.10800521E+2	0.00000000E+0	0.00000000E+0	-3.19000000E-13	1.65287000E-8	1.08000000E+2	8.90394198E-5
3.05174800E+6	5.10904316E+2	0.00000000E+0	0.00000000E+0	-3.62100000E-13	1.65164900E-8	9.80000000E+1	8.92385679E-5
3.05599900E+6	5.11001019E+2	0.00000000E+0	0.00000000E+0	-2.96300000E-13	1.65046400E-8	9.50000000E+1	8.94099730E-5
3.06007200E+6	5.11093594E+2	0.00000000E+0	0.00000000E+0	-2.95100000E-13	1.64925700E-8	1.03000000E+2	8.91519623E-5
3.06429000E+6	5.11195723E+2	0.00000000E+0	0.00000000E+0	-3.09100000E-13	1.64799800E-8	9.80000000E+1	8.94244807E-5
3.06833500E+6	5.11300671E+2	0.00000000E+0	0.00000000E+0	-3.28700000E-13	1.64680600E-8	8.40000000E+1	8.92092155E-5
3.07239000E+6	5.11406782E+2	0.00000000E+0	0.00000000E+0	-3.56600000E-13	1.64564400E-8	9.10000000E+1	8.90560703E-5
3.07655700E+6	5.11490917E+2	0.00000000E+0	0.00000000E+0	-3.75100000E-13	1.64446300E-8	8.50000000E+1	8.91585605E-5
3.08138600E+6	5.11608051E+2	0.00000000E+0	0.00000000E+0	-2.51200000E-13	1.64320100E-8	8.90000000E+1	8.89580117E-5
3.08557600E+6	5.11699743E+2	0.00000000E+0	0.00000000E+0	-3.34900000E-13	1.64206600E-8	9.20000000E+1	8.90589433E-5
3.08976400E+6	5.11800972E+2	0.00000000E+0	0.00000000E+0	-2.92000000E-13	1.64072000E-8	1.00000000E+2	8.95030099E-5
3.09396100E+6	5.11899288E+2	0.00000000E+0	0.00000000E+0	-3.76600000E-13	1.63948800E-8	8.60000000E+1	8.92861413E-5
3.09817600E+6	5.11994062E+2	0.00000000E+0	0.00000000E+0	-3.28000000E-13	1.63815300E-8	1.03000000E+2	8.91681688E-5
3.10233800E+6	5.12102650E+2	0.00000000E+0	0.00000000E+0	-5.06300000E-13	1.63671800E-8	1.02000000E+2	8.89651285E-5
3.10650600E+6	5.12203548E+2	0.00000000E+0	0.00000000E+0	-3.79800000E-13	1.63549700E-8	9.20000000E+1	8.90591906E-5
3.11068100E+6	5.12299129E+2	0.00000000E+0	0.00000000E+0	-3.45800000E-13	1.63423400E-8	8.10000000E+1	8.90020417E-5
3.11486800E+6	5.12397652E+2	0.00000000E+0	0.00000000E+0	-3.17400000E-13	1.63282600E-8	9.20000000E+1	8.89650540E-5
3.11910600E+6	5.12499238E+2	0.00000000E+0	0.00000000E+0	-3.50000000E-13	1.63135800E-8	7.60000000E+1	8.89950083E-5
3.12336100E+6	5.12603889E+2	0.00000000E+0	0.00000000E+0	-2.66500000E-13	1.62999400E-8	8.60000000E+1	8.92995673E-5
3.12755000E+6	5.12702094E+2	0.00000000E+0	0.00000000E+0	-3.89700000E-13	1.62878200E-8	1.05000000E+2	8.87213455E-5
3.13175000E+6	5.12794615E+2	0.00000000E+0	0.00000000E+0	-3.55800000E-13	1.62738700E-8	1.03000000E+2	8.89805393E-5
3.13593900E+6	5.12901652E+2	0.00000000E+0	0.00000000E+0	-3.13300000E-13	1.62591400E-8	1.01000000E+2	8.90011923E-5
3.14016000E+6	5.13000301E+2	0.00000000E+0	0.00000000E+0	-2.34300000E-13	1.62439600E-8	8.90000000E+1	8.89521764E-5
3.14439800E+6	5.13104155E+2	0.00000000E+0	0.00000000E+0	-3.39600000E-13	1.62300900E-8	1.01000000E+2	8.87201862E-5
3.14868300E+6	5.13203134E+2	0.00000000E+0	0.00000000E+0	-3.39800000E-13	1.62170200E-8	9.20000000E+1	8.86215286E-5
3.15288600E+6	5.13298882E+2	0.00000000E+0	0.00000000E+0	-3.60900000E-13	1.62028300E-8	8.70000000E+1	8.88126867E-5
3.15707400E+6	5.13394794E+2	0.00000000E+0	0.00000000E+0	-4.20100000E-13	1.61865900E-8	8.90000000E+1	8.89195250E-5
3.16123600E+6	5.13501399E+2	0.00000000E+0	0.00000000E+0	-3.98700000E-13	1.61713500E-8	1.14000000E+2	8.94417571E-5
3.16544600E+6	5.13602313E+2	0.00000000E+0	0.00000000E+0	-3.47300000E-13	1.61590600E-8	8.70000000E+1	8.87884902E-5
3.16968000E+6	5.13697466E+2	0.00000000E+0	0.00000000E+0	-3.01200000E-13	1.61450200E-8	8.90000000E+1	8.88633774E-5
3.17388400E+6	5.13798587E+2	0.00000000E+0	0.00000000E+0	-4.27300000E-13	1.61296300E-8	9.30000000E+1	8.90779929E-5
3.17809100E+6	5.13896976E+2	0.00000000E+0	0.00000000E+0	-2.91300000E-13	1.61129500E-8	1.11000000E+2	8.88399468E-5
3.18230600E+6	5.14006633E+2	0.00000000E+0	0.00000000E+0	-2.44300000E-13	1.60974200E-8	9.90000000E+1	8.93617677E-5
3.18654000E+6	5.14099180E+2	0.00000000E+0	0.00000000E+0	-3.22100000E-13	1.60835700E-8	9.50000000E+1	8.87457477E-5
3.19073900E+6	5.14197129E+2	0.00000000E+0	0.00000000E+0	-2.82000000E-13	1.60666700E-8	8.10000000E+1	8.89598774E-5
3.19491500E+6	5.14302314E+2	0.00000000E+0	0.00000000E+0	-3.14300000E-13	1.60495900E-8	9.50000000E+1	8.91401218E-5
3.19912300E+6	5.14403064E+2	0.00000000E+0	0.00000000E+0	-2.66600000E-13	1.60354500E-8	9.20000000E+1	8.87239949E-5
3.20334100E+6	5.14497104E+2	0.00000000E+0	0.00000000E+0	-3.56400000E-13	1.60220500E-8	8.90000000E+1	8.91486662E-5
3.20747700E+6	5.14598951E+2	0.00000000E+0	0.00000000E+0	-3.36300000E-13	1.60388600E-8	9.10000000E+1	8.89700996E-5
3.21171100E+6	5.14705762E+2	0.00000000E+0	0.00000000E+0	-2.54100000E-13	1.60510300E-8	9.50000000E+1	8.90896337E-5
3.21594300E+6	5.14798607E+2	0.00000000E+0	0.00000000E+0	-2.77900000E-13	1.60352400E-8	1.10000000E+2	8.93435018E-5
3.22014600E+6	5.14892688E+2	0.00000000E+0	0.00000000E+0	-2.96000000E-13	1.60175800E-8	1.15000000E+2	8.95835983E-5
3.22438200E+6	5.15004369E+2	0.00000000E+0	0.00000000E+0	-2.83900000E-13	1.59985900E-8	1.07000000E+2	8.88875829E-5
3.22854100E+6	5.15100814E+2	0.00000000E+0	0.00000000E+0	-3.29800000E-13	1.59841800E-8	1.02000000E+2	8.92595725E-5
3.23272500E+6	5.15195721E+2	0.00000000E+0	0.00000000E+0	-3.63200000E-13	1.59670700E-8	1.00000000E+2	8.92310458E-5
3.23693800E+6	5.15298754E+2	0.00000000E+0	0.00000000E+0	-3.46000000E-13	1.59468600E-8	9.00000000E+1	8.88000803E-5
3.24110200E+6	5.15406443E+2	0.00000000E+0	0.00000000E+0	-4.07100000E-13	1.59318900E-8	9.00000000E+1	8.88811217E-5
3.24530200E+6	5.15497568E+2	0.00000000E+0	0.00000000E+0	-3.38100000E-13	1.59141300E-8	8.90000000E+1	8.86584447E-5
3.24955000E+6	5.15598139E+2	0.00000000E+0	0.00000000E+0	-2.85200000E-13	1.58954700E-8	9.60000000E+1	8.87203382E-5
3.25377000E+6	5.15704950E+2	0.00000000E+0	0.00000000E+0	-2.55300000E-13	1.58747100E-8	1.05000000E+2	8.89979051E-5
3.25797500E+6	5.15799807E+2	0.00000000E+0	0.00000000E+0	-3.76500000E-13	1.58595100E-8	9.50000000E+1	8.92105358E-5
3.26216900E+6	5.15895371E+2	0.00000000E+0	0.00000000E+0	-2.36600000E-13	1.58389800E-8	9.40000000E+1	8.94046026E-5
3.26636400E+6	5.16002674E+2	0.00000000E+0	0.00000000E+0	-3.57600000E-13	1.58224100E-8	9.50000000E+1	8.88742463E-5
3.27053800E+6	5.16095872E+2	0.00000000E+0	0.00000000E+0	-2.71300000E-13	1.58016200E-8	1.05000000E+2	8.89151024E-5
3.27474200E+6	5.16198656E+2	0.00000000E+0	0.00000000E+0	-2.64200000E-13	1.57843500E-8	8.80000000E+1	8.90636044E-5
3.27894200E+6	5.16296567E+2	0.00000000E+0	0.00000000E+0	-3.55900000E-13	1.57629600E-8	1.03000000E+2	8.91642587E-5
3.28317200E+6	5.16401470E+2	0.00000000E+0	0.00000000E+0	-3.82700000E-13	1.57452100E-8	9.40000000E+1	8.91792761E-5
3.28737600E+6	5.16500051E+2	0.00000000E+0	0.00000000E+0	-3.62600000E-13	1.57236800E-8	9.40000000E+1	8.92055767E-5
3.29236800E+6	5.16604040E+2	0.00000000E+0	0.00000000E+0	-4.10100000E-13	1.57061700E-8	9.10000000E+1	8.89729189E-5
3.29660800E+6	5.16698536E+2	0.00000000E+0	0.00000000E+0	-2.46200000E-13	1.56851900E-8	1.06000000E+2	8.90718477E-5
3.30079300E+6	5.16800025E+2	0.00000000E+0	0.00000000E+0	-3.01800000E-13	1.56681500E-8	9.10000000E+1	8.90220748E-5
3.30498400E+6	5.16898800E+2	0.00000000E+0	0.00000000E+0	-2.24900000E-13	1.56450700E-8	1.07000000E+2	8.89954464E-5
3.30920700E+6	5.17000823E+2	0.00000000E+0	0.00000000E+0	-2.73000000E-13	1.56272500E-8	9.80000000E+1	8.90241848E-5
3.31340100E+6	5.17097098E+2	0.00000000E+0	0.00000000E+0	-2.68500000E-13	1.56038600E-8	9.80000000E+1	8.90751975E-5
3.31758400E+6	5.17202963E+2	0.00000000E+0	0.00000000E+0	-3.15600000E-13	1.55851000E-8	9.80000000E+1	8.91586142E-5
3.32183700E+6	5.17293563E+2	0.00000000E+0	0.00000000E+0	-2.81200000E-13	1.55622100E-8	9.40000000E+1	8.89575736E-5
3.32607400E+6	5.17402125E+2	0.00000000E+0	0.00000000E+0	-2.97100000E-13	1.55425100E-8	9.20000000E+1	8.89310496E-5
3.33036600E+6	5.17500617E+2	0.00000000E+0	0.00000000E+0	-2.76900000E-13	1.55175900E-8	9.60000000E+1	8.89404313E-5
3.33462000E+6	5.17602492E+2	0.00000000E+0	0.00000000E+0	-3.11000000E-13	1.54991500E-8	9.50000000E+1	8.93531578E-5
3.33881700E+6	5.17696894E+2	0.00000000E+0	0.00000000E+0	-3.34800000E-13	1.54751900E-8	9.50000000E+1	8.93210309E-5
3.34301300E+6	5.17795639E+2	0.00000000E+0	0.00000000E+0	-2.75100000E-13	1.54537500E-8	8.10000000E+1	8.89971303E-5
3.34722400E+6	5.17910197E+2	0.00000000E+0	0.00000000E+0	-3.99800000E-13	1.54317400E-8	1.03000000E+2	8.87395786E-5
3.35143400E+6	5.17998544E+2	0.00000000E+0	0.00000000E+0	-3.02200000E-13	1.54109300E-8	9.50000000E+1	8.88318764E-5
3.35565300E+6	5.18103038E+2	0.00000000E+0	0.00000000E+0	-3.52500000E-13	1.53882200E-8	9.90000000E+1	8.89564173E-5
3.35996900E+6	5.18192893E+2	0.00000000E+0	0.00000000E+0	-2.92100000E-13	1.53656100E-8	1.01000000E+2	8.88073491E-5
3.36417500E+6	5.18307261E+2	0.00000000E+0	0.00000000E+0	-2.77200000E-13	1.53410000E-8	1.07000000E+2	8.87067155E-5
3.36837900E+6	5.18398615E+2	0.00000000E+0	0.00000000E+0	-2.19100000E-13	1.53170100E-8	9.80000000E+1	8.89610426E-5
3.37272600E+6	5.18494259E+2	0.00000000E+0	0.00000000E+0	-4.76900000E-13	1.52928200E-8	9.80000000E+1	8.88947265E-5
3.37695700E+6	5.18598958E+2	0.00000000E+0	0.00000000E+0	-3.40400000E-13	1.52629600E-8	8.70000000E+1	8.86542366E-5
3.38119100E+6	5.18694369E+2	0.00000000E+0	0.00000000E+0	-1.57300000E-13	1.52395600E-8	1.03000000E+2	8.85920928E-5
3.38551700E+6	5.18797531E+2	0.00000000E+0	0.00000000E+0	-3.12600000E-13	1.52150600E-8	9.50000000E+1	8.93318432E-5
3.38984700E+6	5.18899350E+2	0.00000000E+0	0.00000000E+0	-3.21500000E-13	1.51942100E-8	1.08000000E+2	8.90712963E-5
3.39404300E+6	5.19010507E+2	0.00000000E+0	0.00000000E+0	-2.51700000E-13	1.51687400E-8	8.00000000E+1	8.90206413E-5
3.39825500E+6	5.19103138E+2	0.00000000E+0	0.00000000E+0	-3.01600000E-13	1.51457300E-8	8.50000000E+1	8.89279889E-5
3.40243700E+6	5.19201797E+2	0.00000000E+0	0.00000000E+0	-3.45100000E-13	1.51202400E-8	8.70000000E+1	8.89884101E-5
3.40661300E+6	5.19302275E+2	0.00000000E+0	0.00000000E+0	-1.63500000E-13	1.50948900E-8	9.00000000E+1	8.88252781E-5
3.41080900E+6	5.19394501E+2	0.00000000E+0	0.00000000E+0	-3.91200000E-13	1.50705900E-8	1.08000000E+2	8.88106154E-5
3.41500700E+6	5.19504993E+2	0.00000000E+0	0.00000000E+0	-2.86600000E-13	1.50439400E-8	8.60000000E+1	8.89039056E-5
3.41937300E+6	5.19590636E+2	0.00000000E+0	0.00000000E+0	-2.76000000E-13	1.50184700E-8	1.08000000E+2	8.90536653E-5
3.42355900E+6	5.19698881E+2	0.00000000E+0	0.00000000E+0	-2.87400000E-13	1.49884200E-8	9.90000000E+1	8.91930329E-5
3.42777100E+6	5.19799129E+2	0.00000000E+0	0.00000000E+0	-3.20200000E-13	1.49810200E-8	9.80000000E+1	8.91220884E-5
3.43197900E+6	5.19900865E+2	0.00000000E+0	0.00000000E+0	-3.54700000E-13	1.49897500E-8	9.50000000E+1	8.92140882E-5
3.43618000E+6	5.19999614E+2	0.00000000E+0	0.00000000E+0	-2.74300000E-13	1.49735300E-8	1.01000000E+2	8.90980171E-5
3.44035900E+6	5.20096812E+2	0.00000000E+0	0.00000000E+0	-3.17400000E-13	1.49473000E-8	9.20000000E+1	8.92002331E-5
3.44453500E+6	5.20202276E+2	0.00000000E+0	0.00000000E+0	-2.90100000E-13	1.49202100E-8	1.09000000E+2	8.89252798E-5
3.44877300E+6	5.20296951E+2	0.00000000E+0	0.00000000E+0	-3.56100000E-13	1.48948200E-8	1.12000000E+2	8.92442422E-5
3.45299700E+6	5.20399739E+2	0.00000000E+0	0.00000000E+0	-3.09800000E-13	1.48684300E-8	1.11000000E+2	8.91800033E-5
3.45710500E+6	5.20500277E+2	0.00000000E+0	0.00000000E+0	-1.86200000E-13	1.48420200E-8	9.50000000E+1	8.94921827E-5
3.46130900E+6	5.20600699E+2	0.00000000E+0	0.00000000E+0	-3.37100000E-13	1.48155300E-8	9.60000000E+1	8.89654891E-5
3.46557400E+6	5.20702753E+2	0.00000000E+0	0.00000000E+0	-2.15400000E-13	1.47896500E-8	1.08000000E+2	8.89048712E-5
3.46964800E+6	5.20800493E+2	0.00000000E+0	0.00000000E+0	-3.45700000E-13	1.47662700E-8	1.05000000E+2	8.91056942E-5
3.47373700E+6	5.20906398E+2	0.00000000E+0	0.00000000E+0	-3.02100000E-13	1.47439200E-8	1.15000000E+2	8.87135462E-5
3.47785000E+6	5.21006978E+2	0.00000000E+0	0.00000000E+0	-3.41500000E-13	1.47235300E-8	1.06000000E+2	8.90658872E-5
3.48204800E+6	5.21091861E+2	0.00000000E+0	0.00000000E+0	-3.08700000E-13	1.47013200E-8	1.05000000E+2	8.87122886E-5
3.48624900E+6	5.21200601E+2	0.00000000E+0	0.00000000E+0	-3.15800000E-13	1.46779900E-8	9.70000000E+1	8.93120962E-5
3.49047200E+6	5.21299863E+2	0.00000000E+0	0.00000000E+0	-2.72200000E-13	1.46569800E-8	9.60000000E+1	8.94649553E-5
3.49470000E+6	5.21400601E+2	0.00000000E+0	0.00000000E+0	-3.03200000E-13	1.46371300E-8	1.01000000E+2	8.93966424E-5
3.49887300E+6	5.21499357E+2	0.00000000E+0	0.00000000E+0	-2.57300000E-13	1.46183400E-8	1.04000000E+2	8.91814934E-5
3.50379800E+6	5.21600174E+2	0.00000000E+0	0.00000000E+0	-3.26800000E-13	1.45990500E-8	8.30000000E+1	8.91891467E-5
3.50802900E+6	5.21697412E+2	0.00000000E+0	0.00000000E+0	-3.16100000E-13	1.45815200E-8	1.01000000E+2	8.91928541E-5
3.51209900E+6	5.21797172E+2	0.00000000E+0	0.00000000E+0	-1.97700000E-13	1.45633700E-8	1.06000000E+2	8.88635443E-5
3.51613100E+6	5.21895765E+2	0.00000000E+0	0.00000000E+0	-1.88900000E-13	1.45496200E-8	9.30000000E+1	8.90163617E-5
3.52017600E+6	5.21995394E+2	0.00000000E+0	0.00000000E+0	-2.49200000E-13	1.45341000E-8	8.90000000E+1	8.90713351E-5
3.52421500E+6	5.22107636E+2	0.00000000E+0	0.00000000E+0	-3.01000000E-13	1.45243200E-8	9.30000000E+1	8.90736656E-5
3.52825500E+6	5.22200437E+2	0.00000000E+0	0.00000000E+0	-3.34900000E-13	1.45140200E-8	1.02000000E+2	8.88507591E-5
3.53228800E+6	5.22299823E+2	0.00000000E+0	0.00000000E+0	-2.37800000E-13	1.45040700E-8	7.80000000E+1	8.89860826E-5
3.53633500E+6	5.22403778E+2	0.00000000E+0	0.00000000E+0	-2.64000000E-13	1.44966600E-8	9.90000000E+1	8.88926225E-5
3.54039100E+6	5.22490112E+2	0.00000000E+0	0.00000000E+0	-2.52300000E-13	1.44901700E-8	7.30000000E+1	8.88996588E-5
3.54456000E+6	5.22611079E+2	0.00000000E+0	0.00000000E+0	-3.06300000E-13	1.44855000E-8	1.07000000E+2	8.92534213E-5
3.54859900E+6	5.22695951E+2	0.00000000E+0	0.00000000E+0	-3.46000000E-13	1.44832000E-8	1.01000000E+2	8.89493542E-5
3.55267100E+6	5.22802265E+2	0.00000000E+0	0.00000000E+0	-2.50300000E-13	1.44816300E-8	9.60000000E+1	8.87615041E-5
3.55668300E+6	5.22901101E+2	0.00000000E+0	0.00000000E+0	-2.72200000E-13	1.44819300E-8	9.60000000E+1	8.92380076E-5
3.56073900E+6	5.22987623E+2	0.00000000E+0	0.00000000E+0	-2.23300000E-13	1.44848100E-8	1.08000000E+2	8.86798815E-5
3.56477000E+6	5.23108032E+2	0.00000000E+0	0.00000000E+0	-2.89900000E-13	1.44880800E-8	8.90000000E+1	8.91489076E-5
3.56883500E+6	5.23197914E+2	0.00000000E+0	0.00000000E+0	-3.18100000E-13	1.44927900E-8	8.50000000E+1	8.89654176E-5
3.57289000E+6	5.23301578E+2	0.00000000E+0	0.00000000E+0	-2.42300000E-13	1.45002500E-8	9.10000000E+1	8.90190529E-5
3.57700700E+6	5.23399778E+2	0.00000000E+0	0.00000000E+0	-1.88000000E-13	1.45066900E-8	1.03000000E+2	8.89480965E-5
3.58108000E+6	5.23491762E+2	0.00000000E+0	0.00000000E+0	-3.05400000E-13	1.45168100E-8	1.03000000E+2	8.88566421E-5
3.58515400E+6	5.23604444E+2	0.00000000E+0	0.00000000E+0	-2.77800000E-13	1.45260900E-8	9.20000000E+1	8.88422833E-5
3.58924200E+6	5.23698626E+2	0.00000000E+0	0.00000000E+0	-2.61200000E-13	1.45364700E-8	1.03000000E+2	8.89236497E-5
3.59332000E+6	5.23808029E+2	0.00000000E+0	0.00000000E+0	-2.85700000E-13	1.45481800E-8	7.30000000E+1	8.91678201E-5
3.59737300E+6	5.23893007E+2	0.00000000E+0	0.00000000E+0	-2.57700000E-13	1.45622100E-8	9.20000000E+1	8.86751847E-5
3.60141800E+6	5.24004097E+2	0.00000000E+0	0.00000000E+0	-3.36500000E-13	1.45744000E-8	8.60000000E+1	8.87972789E-5
3.60549600E+6	5.24096461E+2	0.00000000E+0	0.00000000E+0	-2.98800000E-13	1.45887100E-8	8.10000000E+1	8.89429347E-5
3.60952900E+6	5.24201901E+2	0.00000000E+0	0.00000000E+0	-3.36200000E-13	1.46006200E-8	9.10000000E+1	8.91676294E-5
3.61357500E+6	5.24295499E+2	0.00000000E+0	0.00000000E+0	-2.89700000E-13	1.46166200E-8	9.50000000E+1	8.86688308E-5
3.61761400E+6	5.24406883E+2	0.00000000E+0	0.00000000E+0	-2.07300000E-13	1.46292100E-8	1.14000000E+2	8.87944804E-5
3.62166500E+6	5.24493924E+2	0.00000000E+0	0.00000000E+0	-3.10000000E-13	1.46440600E-8	8.70000000E+1	8.89365392E-5
3.62571700E+6	5.24604940E+2	0.00000000E+0	0.00000000E+0	-3.24900000E-13	1.46566800E-8	8.90000000E+1	8.90015470E-5
3.62978600E+6	5.24698506E+2	0.00000000E+0	0.00000000E+0	-2.85600000E-13	1.46707300E-8	9.40000000E+1	8.87889402E-5
3.63384300E+6	5.24797976E+2	0.00000000E+0	0.00000000E+0	-1.98000000E-13	1.46812300E-8	8.10000000E+1	8.91624438E-5
3.63792500E+6	5.24898216E+2	0.00000000E+0	0.00000000E+0	-2.08800000E-13	1.46950600E-8	9.50000000E+1	8.89302032E-5
3.64196800E+6	5.25002757E+2	0.00000000E+0	0.00000000E+0	-2.56100000E-13	1.47047500E-8	9.60000000E+1	8.91952502E-5
3.64611300E+6	5.25101442E+2	0.00000000E+0	0.00000000E+0	-3.27800000E-13	1.47161000E-8	8.90000000E+1	8.91330885E-5
3.65015300E+6	5.25200158E+2	0.00000000E+0	0.00000000E+0	-3.04400000E-13	1.47264400E-8	9.90000000E+1	8.87107567E-5
3.65420600E+6	5.25302588E+2	0.00000000E+0	0.00000000E+0	-2.62800000E-13	1.47722800E-8	9.50000000E+1	8.89748381E-5
3.65824500E+6	5.25398862E+2	0.00000000E+0	0.00000000E+0	-2.55800000E-13	1.47995100E-8	7.90000000E+1	8.95432162E-5
3.66227600E+6	5.25502240E+2	0.00000000E+0	0.00000000E+0	-2.31200000E-13	1.48074900E-8	8.10000000E+1	8.91042220E-5
3.66632700E+6	5.25592823E+2	0.00000000E+0	0.00000000E+0	-3.08600000E-13	1.48132500E-8	8.60000000E+1	8.95476955E-5
3.67040800E+6	5.25705265E+2	0.00000000E+0	0.00000000E+0	-3.53500000E-13	1.48195300E-8	1.01000000E+2	8.92370539E-5
3.67443800E+6	5.25798278E+2	0.00000000E+0	0.00000000E+0	-2.98300000E-13	1.48240600E-8	1.03000000E+2	8.89272796E-5
3.67854700E+6	5.25894735E+2	0.00000000E+0	0.00000000E+0	-2.51200000E-13	1.48279700E-8	9.70000000E+1	8.92477649E-5
3.68258700E+6	5.26013810E+2	0.00000000E+0	0.00000000E+0	-2.12800000E-13	1.48315700E-8	9.70000000E+1	8.93464463E-5
3.68675600E+6	5.26089812E+2	0.00000000E+0	0.00000000E+0	-2.59300000E-13	1.48343400E-8	8.00000000E+1	8.94156801E-5
3.69080000E+6	5.26203049E+2	0.00000000E+0	0.00000000E+0	-1.98100000E-13	1.48365100E-8	8.40000000E+1	8.92057048E-5
3.69489200E+6	5.26303480E+2	0.00000000E+0	0.00000000E+0	-2.73100000E-13	1.48375800E-8	9.50000000E+1	8.90531229E-5
3.69893300E+6	5.26390051E+2	0.00000000E+0	0.00000000E+0	-2.31300000E-13	1.48381100E-8	1.04000000E+2	8.89403688E-5
3.70298300E+6	5.26513154E+2	0.00000000E+0	0.00000000E+0	-1.83600000E-13	1.48379300E-8	9.80000000E+1	8.88169305E-5
3.70788300E+6	5.26594171E+2	0.00000000E+0	0.00000000E+0	-2.42600000E-13	1.48372000E-8	8.60000000E+1	8.89533924E-5
3.71198700E+6	5.26700050E+2	0.00000000E+0	0.00000000E+0	-2.13600000E-13	1.48357100E-8	8.80000000E+1	8.89913188E-5
3.71607900E+6	5.26802859E+2	0.00000000E+0	0.00000000E+0	-2.76500000E-13	1.48338200E-8	1.10000000E+2	8.92203229E-5
3.72013600E+6	5.26887963E+2	0.00000000E+0	0.00000000E+0	-4.69400000E-13	1.48310300E-8	1.16000000E+2	8.90552478E-5
3.72423100E+6	5.27005775E+2	0.00000000E+0	0.00000000E+0	-4.14600000E-13	1.48279500E-8	9.00000000E+1	8.90864180E-5
3.72840300E+6	5.27099074E+2	0.00000000E+0	0.00000000E+0	-3.46300000E-13	1.48242100E-8	1.07000000E+2	8.89673876E-5
3.73244100E+6	5.27198758E+2	0.00000000E+0	0.00000000E+0	-2.86600000E-13	1.48209200E-8	8.80000000E+1	8.92428266E-5
3.73650000E+6	5.27309138E+2	0.00000000E+0	0.00000000E+0	-2.96500000E-13	1.48167800E-8	1.01000000E+2	8.92611878E-5
3.74058900E+6	5.27392766E+2	0.00000000E+0	0.00000000E+0	-3.27500000E-13	1.48125600E-8	8.90000000E+1	8.90518652E-5
3.74484800E+6	5.27502027E+2	0.00000000E+0	0.00000000E+0	-2.40200000E-13	1.48080100E-8	1.04000000E+2	8.92564522E-5
3.74902700E+6	5.27606736E+2	0.00000000E+0	0.00000000E+0	-1.69700000E-13	1.48028500E-8	9.00000000E+1	8.93089818E-5
3.75306700E+6	5.27690439E+2	0.00000000E+0	0.00000000E+0	-2.72100000E-13	1.47987600E-8	1.02000000E+2	8.94646185E-5
3.75708400E+6	5.27800462E+2	0.00000000E+0	0.00000000E+0	-2.25800000E-13	1.47939700E-8	9.40000000E+1	8.90447663E-5
3.76111200E+6	5.27895348E+2	0.00000000E+0	0.00000000E+0	-1.84000000E-13	1.47881000E-8	9.70000000E+1	8.87660013E-5
3.76519500E+6	5.28009576E+2	0.00000000E+0	0.00000000E+0	-2.69300000E-13	1.47834700E-8	1.01000000E+2	8.89104115E-5
3.76911900E+6	5.28077999E+2	0.00000000E+0	0.00000000E+0	-2.64500000E-13	1.47783400E-8	8.70000000E+1	8.90611278E-5
3.77316400E+6	5.28215795E+2	0.00000000E+0	0.00000000E+0	-2.78300000E-13	1.47737400E-8	8.80000000E+1	8.90897142E-5
3.77721000E+6	5.28304349E+2	0.00000000E+0	0.00000000E+0	-2.66500000E-13	1.47698100E-8	8.60000000E+1	8.90821503E-5
3.78114200E+6	5.28389821E+2	0.00000000E+0	0.00000000E+0	-2.81100000E-13	1.47662800E-8	8.90000000E+1	8.88978170E-5
3.78519400E+6	5.28511919E+2	0.00000000E+0	0.00000000E+0	-2.76300000E-13	1.47623100E-8	1.12000000E+2	8.90566306E-5
3.78922600E+6	5.28594354E+2	0.00000000E+0	0.00000000E+0	-3.27900000E-13	1.47589200E-8	9.30000000E+1	8.91109543E-5
3.79328500E+6	5.28703922E+2	0.00000000E+0	0.00000000E+0	-3.02200000E-13	1.47564200E-8	9.50000000E+1	8.88861047E-5
3.79733900E+6	5.28799547E+2	0.00000000E+0	0.00000000E+0	-2.84400000E-13	1.47544700E-8	1.05000000E+2	8.86975394E-5
3.80137400E+6	5.28901031E+2	0.00000000E+0	0.00000000E+0	-2.75200000E-13	1.47534100E-8	9.30000000E+1	8.86050151E-5
3.80533700E+6	5.28997050E+2	0.00000000E+0	0.00000000E+0	-2.23500000E-13	1.47524200E-8	1.01000000E+2	8.88848232E-5
3.80935500E+6	5.29101917E+2	0.00000000E+0	0.00000000E+0	-2.72000000E-13	1.47529200E-8	9.50000000E+1	8.91349452E-5
3.81339200E+6	5.29205351E+2	0.00000000E+0	0.00000000E+0	-3.02500000E-13	1.47530300E-8	1.14000000E+2	8.87034433E-5
3.81743400E+6	5.29297630E+2	0.00000000E+0	0.00000000E+0	-2.69300000E-13	1.47546700E-8	1.13000000E+2	8.92464953E-5
3.82144700E+6	5.29401765E+2	0.00000000E+0	0.00000000E+0	-2.82400000E-13	1.47567500E-8	9.00000000E+1	8.88212191E-5
3.82547600E+6	5.29502960E+2	0.00000000E+0	0.00000000E+0	-2.23500000E-13	1.47603000E-8	9.20000000E+1	8.91096549E-5
3.82954700E+6	5.29594183E+2	0.00000000E+0	0.00000000E+0	-3.35500000E-13	1.47637200E-8	9.80000000E+1	8.89381068E-5
3.83354600E+6	5.29705507E+2	0.00000000E+0	0.00000000E+0	-2.62300000E-13	1.47683800E-8	9.80000000E+1	8.90628831E-5
3.83761200E+6	5.29786974E+2	0.00000000E+0	0.00000000E+0	-2.43900000E-13	1.47737100E-8	8.80000000E+1	8.91847121E-5
3.84198400E+6	5.29896491E+2	0.00000000E+0	0.00000000E+0	-2.04600000E-13	1.47792200E-8	9.70000000E+1	8.89640109E-5
3.84633000E+6	5.30009272E+2	0.00000000E+0	0.00000000E+0	-3.02000000E-13	1.47846800E-8	8.50000000E+1	8.86550622E-5
