G:\BEAR_storage\User_Experiments\20220317_arneodo\file(1)_Region 7__0052.txt
Ring Energy (GeV): 2
Lifetime (hours): 15.3747
Scan beginning: 3/19/2022	12:08:34 PM
Ring current (mA): 308.5
Source position: x (mm): -0.004 x' (mrad): 0.001 y (mm): 0.004 y' (mrad): 0.007
Scan end: 3/19/2022	12:25:00 PM
Ring current (mA): 309.06
Source position: x (mm): -0.005 x' (mrad): 0.001 y (mm): 0.005 y' (mrad): 0.007

SCAN TYPE: PHOTON ENERGY VS VAR_1 VS VAR_2

FILE INFO: FILE INFO:

SCAN PARAMETERS
waiting time (ms): 1000
Number of scans: 1
Current scan number: 1
DARK OFF 
PREDARK OFF 

SCAN PARAMETERS
Regions configuration: 
number of regions: 7
Mirror grating scan: on
Timed acquisition: off
Region 1:
Initial energy (eV): 3.000000
Final energy (eV): 4.500000
Delta energy (eV): 0.500000
Deviation angle choice: Degrees: 
Deviation angle (°): NaN
B270 window
GNIM channel
range keithley B 200 pA
range keithley C 2 uA
range keithley A 200 pA
Var_1: PsiC 0.000000
Var_2: PhiM0.000000
Bias CEM (V): 0.000000
Bias Keithley B (V): -30.000000
Name region: 
Region 2:
Initial energy (eV): 4.000000
Final energy (eV): 8.000000
Delta energy (eV): 0.500000
Deviation angle choice: Degrees: 
Deviation angle (°): NaN
SiO2 window
GNIM channel
range keithley B 200 pA
range keithley C 2 uA
range keithley A 200 pA
Var_1: PsiC 0.000000
Var_2: PhiM0.000000
Bias CEM (V): 0.000000
Bias Keithley B (V): -30.000000
Name region: 
Region 3:
Initial energy (eV): 7.000000
Final energy (eV): 12.000000
Delta energy (eV): 0.500000
Deviation angle choice: Degrees: 
Deviation angle (°): NaN
filter LiF window
GNIM channel
range keithley B 200 pA
range keithley C 2 uA
range keithley A 200 pA
Var_1: PsiC 0.000000
Var_2: PhiM0.000000
Bias CEM (V): 0.000000
Bias Keithley B (V): -30.000000
Name region: 
Region 4:
Initial energy (eV): 11.000000
Final energy (eV): 18.000000
Delta energy (eV): 0.500000
Deviation angle choice: Degrees: 
Deviation angle (°): NaN
In filter
GNIM channel
range keithley B 200 pA
range keithley C 2 uA
range keithley A 200 pA
Var_1: PsiC 0.000000
Var_2: PhiM0.000000
Bias CEM (V): 0.000000
Bias Keithley B (V): -30.000000
Name region: 
Region 5:
Initial energy (eV): 15.000000
Final energy (eV): 25.000000
Delta energy (eV): 0.500000
Deviation angle choice: Degrees: 
Deviation angle (°): NaN
Sn filter
GNIM channel
range keithley B 200 pA
range keithley C 2 uA
range keithley A 200 pA
Var_1: PsiC 0.000000
Var_2: PhiM0.000000
Bias CEM (V): 0.000000
Bias Keithley B (V): -30.000000
Name region: 
Region 6:
Initial energy (eV): 23.000000
Final energy (eV): 45.000000
Delta energy (eV): 0.500000
Deviation angle choice: Degrees: 
Deviation angle (°): NaN
Full Beam
GNIM channel
range keithley B 20 nA
range keithley C 2 uA
range keithley A 20 nA
Var_1: PsiC 0.000000
Var_2: PhiM0.000000
Bias CEM (V): 0.000000
Bias Keithley B (V): -30.000000
Name region: 
Region 7:
Initial energy (eV): 23.000000
Final energy (eV): 45.000000
Delta energy (eV): 0.500000
Deviation angle choice: Degrees: 
Deviation angle (°): NaN
Al filter
GNIM channel
range keithley B 20 nA
range keithley C 2 uA
range keithley A 20 nA
Var_1: PsiC 0.000000
Var_2: PhiM0.000000
Bias CEM (V): 0.000000
Bias Keithley B (V): -30.000000
Name region: 

BEAR MONOCHROMATOR CONFIGURATION: 
Current Grating Position:     -17509.20
Current Mirror Position: 10000.0
Current Grating: GNIM
P2 phiz position:  0.0664
Mono axis position: 73.5000
Current Photon Energy (eV): 5.000
Current Deviation Angle: 29.905
Vertical Exit Slits (um): 100.000
Exit slit y axis position: 1.3625
Horizontal Exit Slits (um):  889.156
Exit slit z axis position: 1.9229
Mitutoyo position (mm): 

Dose on sample (mJ/cm^2): NaN

ENERGY CALIBRATION:
offset grating G1200: yes
Delta 0 order G1200:  -800.0
offset grating G1800: not
Delta 0 order G1800:  0.0
offset grating GNIM: not
Delta 0 order GNIM:  0.0
ZERO ORDER POSITIONS:
Grating G1200: Mirror position:  4938.0
Grating position: -105355.0
Grating G1800: 
Mirror position:  4938.0
Grating position: -106345.0
Grating GNIM: 
Mirror position:  10000.0
Grating position: 227300.0

Initial filter: Ag filter 0.6 um

EXPERIMENTAL CHAMBER CONFIGURATION: 
PsiC (deg):   -0.000186
Phi Analyzer (degrees): 89.993255
Theta Manipulator (degrees): -44.000040
Theta Analyzer (degrees): -135.001450
PhiM (degrees): -0.004103
XM (mm): 0.000425
YM (mm): 19.932987
ZM (mm): (Warning: for kinetic energy scans, 
this parameter is given in the scan settings) 
-6.601438
TiltM (°): 0.000138

ELECTRON ANALYZER CONFIGURATION: 
Current Kinetik energy (eV): 35.0
Mode: DE = COST
Pass Energy (eV):  50.000
CEM: ON
Bias Front-Back CEM (V): 3499.561
Bias Back-Collector CEM (V): 100.874
Bias Retard-Front CEM: 100.087COIL VALUES
Ix (amps):2.820
Iy (amps): 6.789
Iz (amps): 37.337

POLARIZATION SELECTOR CONFIGURATION:
Psi1 (rad): -0.001665535
Psi2 (rad): 0.001417093
Z min position (mm): 46.599650
DZ position (mm): 18.599100
Zmin 0 (mm): 66.500000
DZ0 (mm): 53.000000

BEAM SELECTOR CONFIGURATION:
Zmin position (mm): NaN
DZ position (mm): NaN
Y+ position (mm): NaN
Y- position (mm): NaN

CHANNEL ELECTRON MULTIPLIER CONFIGURATION:
CEM configured: OFF
Bias CEM: 0.000000

FLUORESCENCE DETECTOR CONFIGURATION:
Not configured

LUMINESCENCE MONOCHROMATOR CONFIGURATION:
Optical fiber position (mm): 0.000000
Optical fiber Switch inside: OFF
Optical fiber Switch outside: ON
Monochromator wavelength (A): 0.000000
Limit Switches: ON

I0 MONITOR PARAMETERS:
I0 detector position(mm): -0.000000E+0
Lower switch: OFF
Upper switch: OFF
Valve status:open

PRESSURE PARAMETERS:
Monitor chamber pressure (mbar): 8.792e-10
Experimental chamber pressure -ION GAUGE-(mbar): 0.000000E+0

XMCD PARAMETERS:
Xmcd OFF
Xmcd Direction -
Xmcd current (A): 0.000000

Gated scan off

Instrument 1: AMMETER KEITHLEY 6517A B
Measure type: Current
range type: set range value
range value (ampere):  200 pA
Integration time:  set NPLC value
NPLC value: 10.000
Digital filter count: 2
SAMPLE BIAS (V): -30.000
Vsource: ON
Output Voltage value: 30.000
Vsource range: 1000 V

Range Keithley B changed to 20 nA

Range Keithley B changed to 200 pA

Range Keithley B changed to 20 nA

Range Keithley B changed to 200 pA

Range Keithley B changed to 20 nA

Range Keithley B changed to 200 pA

Range Keithley B changed to 20 nA

Range Keithley B changed to 200 nA

Range Keithley B changed to 200 pA

Range Keithley B changed to 20 nA

Range Keithley B changed to 200 pA

Range Keithley B changed to 20 nA

Range Keithley B changed to 200 pA

Range Keithley B changed to 20 nA

Range Keithley B changed to 200 pA

Range Keithley B changed to 20 nA

Range Keithley B changed to 200 pA

Range Keithley B changed to 20 nA

Range Keithley B changed to 200 pA

Range Keithley B changed to 20 nA

Range Keithley B changed to 200 pA

Range Keithley B changed to 20 nA

Range Keithley B changed to 200 pA

Range Keithley B changed to 20 nA

Range Keithley B changed to 200 pA

Range Keithley B changed to 20 nA

Range Keithley B changed to 200 pA

Range Keithley B changed to 20 nA

Range Keithley B changed to 200 pA

Range Keithley B changed to 20 nA

Range Keithley B changed to 200 pA

Range Keithley B changed to 20 nA

Range Keithley B changed to 200 pA

Range Keithley B changed to 20 nA

Range Keithley B changed to 200 pA

Range Keithley B changed to 20 nA

Range Keithley B changed to 200 pA

Range Keithley B changed to 20 nA

Instrument 2: AMMETER KEITHLEY 6517A A
Measure type: Current
range type: set range value
range value (ampere):  200 nA
Integration time:  set NPLC value
NPLC value: 10.000
Digital filter count: 2
Vsource: OFF
Output Voltage value: -0.000
Vsource range: 100 V
Trigger source: bus

Range Keithley A changed to 20 nA

Range Keithley A changed to 200 nA

Range Keithley A changed to 200 pA

Range Keithley A changed to 20 nA

Range Keithley A changed to 200 pA

Range Keithley A changed to 20 nA

Range Keithley A changed to 200 nA

Range Keithley A changed to 200 pA

Range Keithley A changed to 20 nA

Range Keithley A changed to 200 pA

Range Keithley A changed to 20 nA

Range Keithley A changed to 200 nA

Range Keithley A changed to 200 pA

Range Keithley A changed to 20 nA

Range Keithley A changed to 200 pA

Range Keithley A changed to 20 nA

Range Keithley A changed to 200 pA

Range Keithley A changed to 20 nA

Range Keithley A changed to 200 pA

Range Keithley A changed to 20 nA

Range Keithley A changed to 200 pA

Range Keithley A changed to 20 nA

Range Keithley A changed to 200 nA

Range Keithley A changed to 200 pA

Range Keithley A changed to 20 nA

Range Keithley A changed to 200 pA

Range Keithley A changed to 20 nA

Range Keithley A changed to 200 nA

Range Keithley A changed to 200 pA

Range Keithley A changed to 20 nA

Range Keithley A changed to 200 nA

Range Keithley A changed to 200 pA

Range Keithley A changed to 20 nA

Range Keithley A changed to 200 pA

Range Keithley A changed to 20 nA

Range Keithley A changed to 200 pA

Range Keithley A changed to 20 nA

Range Keithley A changed to 200 nA

Range Keithley A changed to 200 pA

Range Keithley A changed to 20 nA

Range Keithley A changed to 200 pA

Range Keithley A changed to 20 nA

Range Keithley A changed to 200 nA

Range Keithley A changed to 20 nA

Range Keithley A changed to 200 nA

Range Keithley A changed to 200 pA

Range Keithley A changed to 20 nA

Range Keithley A changed to 200 nA

Range Keithley A changed to 2 uA

Range Keithley A changed to 20 nA

Range Keithley A changed to 200 nA

Range Keithley A changed to 2 uA

Range Keithley A changed to 20 nA

Range Keithley A changed to 200 nA

Range Keithley A changed to 200 pA

Range Keithley A changed to 2 uA

Range Keithley A changed to 20 nA

Range Keithley A changed to 200 nA

Range Keithley A changed to 200 pA

Range Keithley A changed to 20 nA

Range Keithley A changed to 2 uA

Range Keithley A changed to 20 nA

Range Keithley A changed to 200 nA

Range Keithley A changed to 20 nA

Range Keithley A changed to 200 nA

Range Keithley A changed to 200 pA

Range Keithley A changed to 2 uA

Range Keithley A changed to 20 nA

Range Keithley A changed to 200 nA

Range Keithley A changed to 20 nA

Range Keithley A changed to 200 nA

Range Keithley A changed to 200 pA

Range Keithley A changed to 20 nA

Range Keithley A changed to 200 nA

Range Keithley A changed to 20 nA

Range Keithley A changed to 200 nA

Range Keithley A changed to 200 pA

Range Keithley A changed to 20 nA

Range Keithley A changed to 200 nA

Range Keithley A changed to 200 pA

Range Keithley A changed to 20 nA

Range Keithley A changed to 200 pA

Range Keithley A changed to 20 nA

Instrument 3: AMMETER KEITHLEY 6517A C 
Measure type: Current
range type: set range value
range value (ampere):  2 uA
Integration time:  set NPLC value
NPLC value: 10.000
Digital filter count: 2
Vsource: OFF
Output Voltage value: -0.000
Vsource range: 100 V
Trigger source: bus


Range Keithley C changed to 20 uA


Range Keithley C changed to 2 uA


Range Keithley C changed to 200 uA


Range Keithley C changed to 2 uA


Range Keithley C changed to 20 uA


Range Keithley C changed to 200 uA


Range Keithley C changed to 2 uA


Range Keithley C changed to 20 uA


Range Keithley C changed to 2 uA


Range Keithley C changed to 20 uA


Range Keithley C changed to 200 uA


Range Keithley C changed to 2 uA


Range Keithley C changed to 20 uA


Range Keithley C changed to 2 uA


Range Keithley C changed to 20 uA


Range Keithley C changed to 2 uA


Range Keithley C changed to 20 uA


Range Keithley C changed to 2 uA


________________________________________________________________________________

RelativeTime (msec)	Photon Energy	Var_1	Var_2	INSTR_1_Sample with Bias _(ampere ) 	INSTR_2_Monitor IM_(ampere)  	INSTR_3_Diode A3_(ampere)	I_BPM_sum (Amps)	
________________________________________________________________________________

8.09264000E+5	2.30003039E+1	0.00000000E+0	0.00000000E+0	-6.00000000E-14	2.40000000E-11	4.20500000E-9	8.85841386E-5
8.14863000E+5	2.34995910E+1	0.00000000E+0	0.00000000E+0	-3.60000000E-13	2.77600000E-11	4.95500000E-9	8.88474600E-5
8.19380000E+5	2.40000261E+1	0.00000000E+0	0.00000000E+0	-4.60000000E-13	2.86100000E-11	5.29000000E-9	8.88410525E-5
8.24039000E+5	2.45000983E+1	0.00000000E+0	0.00000000E+0	-2.60000000E-13	2.69200000E-11	5.11600000E-9	8.88526903E-5
8.28693000E+5	2.49999855E+1	0.00000000E+0	0.00000000E+0	-5.30000000E-13	2.57900000E-11	5.02900000E-9	8.86238353E-5
8.32875000E+5	2.54998515E+1	0.00000000E+0	0.00000000E+0	-1.10000000E-13	2.63500000E-11	5.26900000E-9	8.88097422E-5
8.37201000E+5	2.60001583E+1	0.00000000E+0	0.00000000E+0	-2.30000000E-13	2.74300000E-11	5.59600000E-9	8.88440566E-5
8.41493000E+5	2.64998740E+1	0.00000000E+0	0.00000000E+0	-1.00000000E-14	2.73600000E-11	5.67000000E-9	8.88968127E-5
8.45807000E+5	2.70000995E+1	0.00000000E+0	0.00000000E+0	-4.70000000E-13	2.64100000E-11	5.61400000E-9	8.87539344E-5
8.49981000E+5	2.74999088E+1	0.00000000E+0	0.00000000E+0	-3.10000000E-13	2.56300000E-11	5.55900000E-9	8.85937886E-5
8.54163000E+5	2.79999811E+1	0.00000000E+0	0.00000000E+0	-2.90000000E-13	2.58600000E-11	5.66500000E-9	8.87336151E-5
8.58190000E+5	2.84997823E+1	0.00000000E+0	0.00000000E+0	-3.90000000E-13	2.73200000E-11	6.08900000E-9	8.84761052E-5
8.62489000E+5	2.90002852E+1	0.00000000E+0	0.00000000E+0	-5.00000000E-14	3.01600000E-11	6.81600000E-9	8.88484882E-5
8.66714000E+5	2.94998256E+1	0.00000000E+0	0.00000000E+0	-1.10000000E-13	3.42200000E-11	7.87000000E-9	8.87219684E-5
8.70930000E+5	3.00002474E+1	0.00000000E+0	0.00000000E+0	-2.50000000E-13	3.89400000E-11	9.02200000E-9	8.87361692E-5
8.75011000E+5	3.05000667E+1	0.00000000E+0	0.00000000E+0	-3.70000000E-13	4.31800000E-11	1.01200000E-8	8.85978536E-5
8.79050000E+5	3.09999305E+1	0.00000000E+0	0.00000000E+0	-5.20000000E-13	4.55100000E-11	1.07630000E-8	8.84045021E-5
8.83127000E+5	3.14999031E+1	0.00000000E+0	0.00000000E+0	-2.80000000E-13	4.45200000E-11	1.06630000E-8	8.88432877E-5
8.87206000E+5	3.20001102E+1	0.00000000E+0	0.00000000E+0	-3.40000000E-13	4.05300000E-11	9.70600000E-9	8.88099448E-5
8.91255000E+5	3.25000530E+1	0.00000000E+0	0.00000000E+0	-4.80000000E-13	3.53500000E-11	8.52000000E-9	8.89148729E-5
8.95318000E+5	3.29998403E+1	0.00000000E+0	0.00000000E+0	-1.00000000E-13	3.04300000E-11	7.37500000E-9	8.90059339E-5
8.99322000E+5	3.35001932E+1	0.00000000E+0	0.00000000E+0	-2.90000000E-13	2.64100000E-11	6.43200000E-9	8.84774939E-5
9.03251000E+5	3.39997927E+1	0.00000000E+0	0.00000000E+0	-2.60000000E-13	2.29600000E-11	5.66200000E-9	8.82742123E-5
9.07327000E+5	3.45003134E+1	0.00000000E+0	0.00000000E+0	-4.80000000E-13	2.00400000E-11	4.94500000E-9	8.85050313E-5
9.11222000E+5	3.49999685E+1	0.00000000E+0	0.00000000E+0	-4.00000000E-13	1.75500000E-11	4.36000000E-9	8.86426435E-5
9.15156000E+5	3.55000922E+1	0.00000000E+0	0.00000000E+0	-2.20000000E-13	1.55400000E-11	3.87700000E-9	8.86501478E-5
9.19066000E+5	3.59999900E+1	0.00000000E+0	0.00000000E+0	-2.30000000E-13	1.39400000E-11	3.51600000E-9	8.85783063E-5
9.22748000E+5	3.64999013E+1	0.00000000E+0	0.00000000E+0	-2.80000000E-13	1.26600000E-11	3.21100000E-9	8.83962439E-5
9.26639000E+5	3.70002394E+1	0.00000000E+0	0.00000000E+0	-2.30000000E-13	1.15800000E-11	2.95600000E-9	8.84733425E-5
9.30581000E+5	3.75000015E+1	0.00000000E+0	0.00000000E+0	-1.80000000E-13	1.05900000E-11	2.71100000E-9	8.91025798E-5
9.34502000E+5	3.80001112E+1	0.00000000E+0	0.00000000E+0	-5.20000000E-13	9.63000000E-12	2.49500000E-9	8.88741689E-5
9.38285000E+5	3.84998069E+1	0.00000000E+0	0.00000000E+0	-4.80000000E-13	8.84000000E-12	2.28800000E-9	8.87438314E-5
9.41825000E+5	3.90001383E+1	0.00000000E+0	0.00000000E+0	-5.10000000E-13	8.09000000E-12	2.12400000E-9	8.88953285E-5
9.45597000E+5	3.95005090E+1	0.00000000E+0	0.00000000E+0	-5.40000000E-13	7.42000000E-12	1.92700000E-9	8.89651911E-5
9.49384000E+5	3.99998922E+1	0.00000000E+0	0.00000000E+0	-3.00000000E-13	6.77000000E-12	1.80800000E-9	8.86934893E-5
9.52945000E+5	4.05002658E+1	0.00000000E+0	0.00000000E+0	-5.90000000E-13	6.17000000E-12	1.63400000E-9	8.86792646E-5
9.56719000E+5	4.10002634E+1	0.00000000E+0	0.00000000E+0	-6.00000000E-13	5.66000000E-12	1.47500000E-9	8.90357034E-5
9.60318000E+5	4.14999506E+1	0.00000000E+0	0.00000000E+0	-4.50000000E-13	5.19000000E-12	1.41400000E-9	8.89169382E-5
9.63907000E+5	4.20000008E+1	0.00000000E+0	0.00000000E+0	-1.00000000E-13	4.78000000E-12	1.32300000E-9	8.86386530E-5
9.67493000E+5	4.25002901E+1	0.00000000E+0	0.00000000E+0	-2.40000000E-13	4.37000000E-12	1.22300000E-9	8.85698811E-5
9.71300000E+5	4.29996446E+1	0.00000000E+0	0.00000000E+0	-6.00000000E-14	4.11000000E-12	1.15500000E-9	8.86728780E-5
9.74912000E+5	4.35003560E+1	0.00000000E+0	0.00000000E+0	-2.70000000E-13	3.79000000E-12	1.13300000E-9	8.89116870E-5
9.78486000E+5	4.40000483E+1	0.00000000E+0	0.00000000E+0	-2.70000000E-13	3.52000000E-12	9.45000000E-10	8.90986638E-5
9.82152000E+5	4.44990537E+1	0.00000000E+0	0.00000000E+0	-3.50000000E-13	3.40000000E-12	9.61000000E-10	8.88865785E-5
9.85568000E+5	4.50000737E+1	0.00000000E+0	0.00000000E+0	-1.00000000E-13	3.08000000E-12	9.00000000E-10	8.88453917E-5
