G:\BEAR_storage\User_Experiments\20220108_arneodo\file(1)_Region 7__0017.txt
Ring Energy (GeV): 2
Lifetime (hours): 16.9675
Scan beginning: 8/1/2022	5:47:09 PM
Ring current (mA): 308.93
Source position: x (mm): -0.005 x' (mrad): 0.005 y (mm): -0.004 y' (mrad): 0
Scan end: 8/1/2022	6:38:06 PM
Ring current (mA): 308.92
Source position: x (mm): -0.005 x' (mrad): 0.005 y (mm): -0.003 y' (mrad): 0

SCAN TYPE: PHOTON ENERGY VS VAR_1 VS VAR_2

FILE INFO: FILE INFO:

SCAN PARAMETERS
waiting time (ms): 0
Number of scans: 1
Current scan number: 1
DARK OFF 
PREDARK OFF 

SCAN PARAMETERS
Regions configuration: 
number of regions: 7
Mirror grating scan: on
Timed acquisition: off
Region 1:
Initial energy (eV): 3.000000
Final energy (eV): 4.500000
Delta energy (eV): 0.100000
Deviation angle choice: Degrees: 
Deviation angle (°): NaN
B270 window
GNIM channel
range keithley B 200 pA
range keithley C 2 uA
range keithley A 200 pA
Var_1: XM3.000000
Var_2: YM15.000000
Bias CEM (V): 0.000000
Bias Keithley B (V): -30.000000
Name region: 
Region 2:
Initial energy (eV): 4.000000
Final energy (eV): 8.000000
Delta energy (eV): 0.100000
Deviation angle choice: Degrees: 
Deviation angle (°): NaN
SiO2 window
GNIM channel
range keithley B 200 pA
range keithley C 2 uA
range keithley A 200 pA
Var_1: XM3.000000
Var_2: YM15.000000
Bias CEM (V): 0.000000
Bias Keithley B (V): -30.000000
Name region: 
Region 3:
Initial energy (eV): 7.000000
Final energy (eV): 12.000000
Delta energy (eV): 0.100000
Deviation angle choice: Degrees: 
Deviation angle (°): NaN
filter LiF window
GNIM channel
range keithley B 200 pA
range keithley C 2 uA
range keithley A 200 pA
Var_1: XM3.000000
Var_2: YM15.000000
Bias CEM (V): 0.000000
Bias Keithley B (V): -30.000000
Name region: 
Region 4:
Initial energy (eV): 11.000000
Final energy (eV): 18.000000
Delta energy (eV): 0.100000
Deviation angle choice: Degrees: 
Deviation angle (°): NaN
In filter
GNIM channel
range keithley B 200 pA
range keithley C 2 uA
range keithley A 200 pA
Var_1: XM3.000000
Var_2: YM15.000000
Bias CEM (V): 0.000000
Bias Keithley B (V): -30.000000
Name region: 
Region 5:
Initial energy (eV): 15.000000
Final energy (eV): 25.000000
Delta energy (eV): 0.100000
Deviation angle choice: Degrees: 
Deviation angle (°): NaN
Sn filter
GNIM channel
range keithley B 20 nA
range keithley C 2 uA
range keithley A 20 nA
Var_1: XM3.000000
Var_2: YM15.000000
Bias CEM (V): 0.000000
Bias Keithley B (V): -30.000000
Name region: 
Region 6:
Initial energy (eV): 23.000000
Final energy (eV): 45.000000
Delta energy (eV): 0.100000
Deviation angle choice: Degrees: 
Deviation angle (°): NaN
Full Beam
GNIM channel
range keithley B 20 nA
range keithley C 2 uA
range keithley A 20 nA
Var_1: XM3.000000
Var_2: YM15.000000
Bias CEM (V): 0.000000
Bias Keithley B (V): -30.000000
Name region: 
Region 7:
Initial energy (eV): 23.000000
Final energy (eV): 45.000000
Delta energy (eV): 0.100000
Deviation angle choice: Degrees: 
Deviation angle (°): NaN
Al filter
GNIM channel
range keithley B 20 nA
range keithley C 2 uA
range keithley A 20 nA
Var_1: XM3.000000
Var_2: YM15.000000
Bias CEM (V): 0.000000
Bias Keithley B (V): -30.000000
Name region: 

BEAR MONOCHROMATOR CONFIGURATION: 
Current Grating Position:     185052.20
Current Mirror Position: 9999.8
Current Grating: GNIM
P2 phiz position:  -0.0133
Mono axis position: 73.5000
Current Photon Energy (eV): 29.000
Current Deviation Angle: 29.905
Vertical Exit Slits (um): 450.000
Exit slit y axis position: 2.2375
Horizontal Exit Slits (um):  890.000
Exit slit z axis position: 1.9250
Mitutoyo position (mm): 

Dose on sample (mJ/cm^2): NaN

ENERGY CALIBRATION:
offset grating G1200: yes
Delta 0 order G1200:  -500.0
offset grating G1800: not
Delta 0 order G1800:  0.0
offset grating GNIM: not
Delta 0 order GNIM:  0.0
ZERO ORDER POSITIONS:
Grating G1200: Mirror position:  4938.0
Grating position: -105355.0
Grating G1800: 
Mirror position:  4938.0
Grating position: -106345.0
Grating GNIM: 
Mirror position:  10000.0
Grating position: 227300.0

Initial filter: Al filter

EXPERIMENTAL CHAMBER CONFIGURATION: 
PsiC (deg):   0.036413
Phi Analyzer (degrees): -0.009471
Theta Manipulator (degrees): -45.000040
Theta Analyzer (degrees): -0.000455
PhiM (degrees): -0.006155
XM (mm): 2.999938
YM (mm): 14.999863
ZM (mm): (Warning: for kinetic energy scans, 
this parameter is given in the scan settings) 
-8.300075
TiltM (°): -0.000275

COIL VALUES
Ix (amps):2.950
Iy (amps): 6.790
Iz (amps): 14.440

POLARIZATION SELECTOR CONFIGURATION:
Psi1 (rad): -0.001665535
Psi2 (rad): 0.001417093
Z min position (mm): 46.599650
DZ position (mm): 18.599100
Zmin 0 (mm): 66.500000
DZ0 (mm): 53.000000

BEAM SELECTOR CONFIGURATION:
Zmin position (mm): 158.000000
DZ position (mm): 264.000000
Y+ position (mm): 291.700000
Y- position (mm): NaN

CHANNEL ELECTRON MULTIPLIER CONFIGURATION:
CEM configured: OFF
Bias CEM: 0.000000

FLUORESCENCE DETECTOR CONFIGURATION:
Not configured

LUMINESCENCE MONOCHROMATOR CONFIGURATION:
Optical fiber position (mm): 0.000000
Optical fiber Switch inside: OFF
Optical fiber Switch outside: ON
Monochromator wavelength (A): 229000.000000
Limit Switches: OFF

I0 MONITOR PARAMETERS:
I0 detector position(mm): 1.924999E+2
Lower switch: OFF
Upper switch: OFF
Valve status:open

PRESSURE PARAMETERS:
Monitor chamber pressure (mbar): 1.239e-09
Experimental chamber pressure -ION GAUGE-(mbar): 0.000000E+0

XMCD PARAMETERS:
Xmcd OFF
Xmcd Direction -
Xmcd current (A): 0.000000

Gated scan on
Shutter open time (ms): 633604407
Shutter aperture time (ms): -214622

Instrument 1: AMMETER KEITHLEY 6517A B
Measure type: Current
range type: set range value
range value (ampere):  200 pA
Integration time:  set NPLC value
NPLC value: 10.000
Digital filter count: 2
SAMPLE BIAS (V): -30.000
Vsource: ON
Output Voltage value: 30.000
Vsource range: 1000 V

Range Keithley B changed to 20 nA

Range Keithley B changed to 200 pA

Range Keithley B changed to 20 nA

Range Keithley B changed to 200 pA

Range Keithley B changed to 20 nA

Range Keithley B changed to 200 pA

Range Keithley B changed to 20 nA

Range Keithley B changed to 200 pA

Range Keithley B changed to 20 nA

Range Keithley B changed to 200 nA

Range Keithley B changed to 20 nA

Range Keithley B changed to 200 nA

Range Keithley B changed to 200 pA

Range Keithley B changed to 20 nA

Range Keithley B changed to 200 pA

Range Keithley B changed to 20 nA

Range Keithley B changed to 200 pA

Range Keithley B changed to 20 nA

Range Keithley B changed to 200 pA

Range Keithley B changed to 20 nA

Range Keithley B changed to 200 pA

Range Keithley B changed to 20 nA

Range Keithley B changed to 200 pA

Range Keithley B changed to 20 nA

Instrument 2: AMMETER KEITHLEY 6517A A
Measure type: Current
range type: set range value
range value (ampere):  20 nA
Integration time:  set NPLC value
NPLC value: 10.000
Digital filter count: 2
Vsource: OFF
Output Voltage value: -0.000
Vsource range: 100 V
Trigger source: bus

Range Keithley A changed to 200 nA

Range Keithley A changed to 200 pA

Range Keithley A changed to 20 nA

Range Keithley A changed to 200 nA

Range Keithley A changed to 20 nA

Range Keithley A changed to 200 nA

Range Keithley A changed to 20 nA

Range Keithley A changed to 200 nA

Range Keithley A changed to 200 pA

Range Keithley A changed to 20 nA

Range Keithley A changed to 200 pA

Range Keithley A changed to 20 nA

Range Keithley A changed to 200 pA

Range Keithley A changed to 20 nA

Range Keithley A changed to 200 pA

Range Keithley A changed to 20 nA

Range Keithley A changed to 200 pA

Range Keithley A changed to 20 nA

Range Keithley A changed to 200 pA

Range Keithley A changed to 20 nA

Instrument 3: AMMETER KEITHLEY 6517A C 
Measure type: Current
range type: set range value
range value (ampere):  2 uA
Integration time:  set NPLC value
NPLC value: 10.000
Digital filter count: 2
Vsource: OFF
Output Voltage value: -0.000
Vsource range: 100 V
Trigger source: bus


________________________________________________________________________________

RelativeTime (msec)	Photon Energy	Var_1	Var_2	INSTR_1_Sample with Bias _(ampere ) 	INSTR_2_Monitor IM_(ampere)  	INSTR_3_Diode A3_(ampere)	I_BPM_sum (Amps)	
________________________________________________________________________________

2.34124700E+6	2.30001310E+1	3.00000000E+0	1.50000000E+1	4.40000000E-13	1.06760000E-10	1.68260000E-8	8.92576115E-5
2.34585700E+6	2.30995903E+1	3.00000000E+0	1.50000000E+1	6.80000000E-13	1.10570000E-10	1.74950000E-8	8.91783046E-5
2.34933400E+6	2.32003974E+1	3.00000000E+0	1.50000000E+1	5.70000000E-13	1.14140000E-10	1.81800000E-8	8.90012221E-5
2.35281000E+6	2.33000030E+1	3.00000000E+0	1.50000000E+1	5.10000000E-13	1.17630000E-10	1.88550000E-8	8.91562330E-5
2.35630400E+6	2.33999307E+1	3.00000000E+0	1.50000000E+1	9.80000000E-13	1.20740000E-10	1.94760000E-8	8.90697556E-5
2.35980100E+6	2.35000422E+1	3.00000000E+0	1.50000000E+1	7.30000000E-13	1.23490000E-10	2.00730000E-8	8.93387454E-5
2.36335700E+6	2.35999673E+1	3.00000000E+0	1.50000000E+1	6.40000000E-13	1.25700000E-10	2.05640000E-8	8.93623399E-5
2.36684500E+6	2.37000115E+1	3.00000000E+0	1.50000000E+1	5.60000000E-13	1.27280000E-10	2.09630000E-8	8.92622011E-5
2.37033200E+6	2.37999817E+1	3.00000000E+0	1.50000000E+1	1.14000000E-12	1.28180000E-10	2.12500000E-8	8.91767251E-5
2.37380900E+6	2.39000053E+1	3.00000000E+0	1.50000000E+1	4.10000000E-13	1.28420000E-10	2.14130000E-8	8.93191206E-5
2.37725900E+6	2.39999319E+1	3.00000000E+0	1.50000000E+1	1.02000000E-12	1.28050000E-10	2.14850000E-8	8.95358550E-5
2.38060500E+6	2.41000807E+1	3.00000000E+0	1.50000000E+1	5.60000000E-13	1.27090000E-10	2.14530000E-8	8.91642975E-5
2.38391200E+6	2.41999201E+1	3.00000000E+0	1.50000000E+1	2.50000000E-13	1.25780000E-10	2.13510000E-8	8.95085084E-5
2.38736400E+6	2.42999630E+1	3.00000000E+0	1.50000000E+1	1.11000000E-12	1.24190000E-10	2.11810000E-8	8.88930725E-5
2.39083700E+6	2.44001067E+1	3.00000000E+0	1.50000000E+1	1.80000000E-13	1.22450000E-10	2.10000000E-8	8.95378577E-5
2.39415600E+6	2.44998531E+1	3.00000000E+0	1.50000000E+1	4.40000000E-13	1.20740000E-10	2.08140000E-8	8.93283027E-5
2.39752000E+6	2.46000226E+1	3.00000000E+0	1.50000000E+1	4.40000000E-13	1.19090000E-10	2.06350000E-8	8.92294901E-5
2.40091800E+6	2.47000675E+1	3.00000000E+0	1.50000000E+1	6.90000000E-13	1.17650000E-10	2.04910000E-8	8.91889023E-5
2.40425700E+6	2.47999242E+1	3.00000000E+0	1.50000000E+1	6.80000000E-13	1.16530000E-10	2.04060000E-8	8.90432941E-5
2.40761200E+6	2.48999836E+1	3.00000000E+0	1.50000000E+1	7.20000000E-13	1.15690000E-10	2.03650000E-8	8.92339694E-5
2.41094900E+6	2.49999855E+1	3.00000000E+0	1.50000000E+1	1.00000000E-12	1.15200000E-10	2.03830000E-8	8.91306775E-5
2.41435200E+6	2.50998672E+1	3.00000000E+0	1.50000000E+1	6.80000000E-13	1.15040000E-10	2.04530000E-8	8.90464770E-5
2.41772500E+6	2.52001870E+1	3.00000000E+0	1.50000000E+1	6.90000000E-13	1.15200000E-10	2.05870000E-8	8.90195893E-5
2.42106400E+6	2.52999520E+1	3.00000000E+0	1.50000000E+1	8.80000000E-13	1.15660000E-10	2.07930000E-8	8.89396952E-5
2.42443000E+6	2.53999829E+1	3.00000000E+0	1.50000000E+1	7.00000000E-13	1.16380000E-10	2.10330000E-8	8.92827975E-5
2.42776000E+6	2.55000108E+1	3.00000000E+0	1.50000000E+1	1.07000000E-12	1.17270000E-10	2.12590000E-8	8.93078195E-5
2.43111400E+6	2.56001336E+1	3.00000000E+0	1.50000000E+1	4.30000000E-13	1.18290000E-10	2.15600000E-8	8.91144412E-5
2.43443900E+6	2.56999123E+1	3.00000000E+0	1.50000000E+1	1.11000000E-12	1.19340000E-10	2.18460000E-8	8.90031593E-5
2.43778000E+6	2.57999823E+1	3.00000000E+0	1.50000000E+1	7.90000000E-13	1.20320000E-10	2.21380000E-8	8.89262782E-5
2.44110700E+6	2.58999028E+1	3.00000000E+0	1.50000000E+1	7.30000000E-13	1.21210000E-10	2.24190000E-8	8.88552414E-5
2.44446700E+6	2.59998821E+1	3.00000000E+0	1.50000000E+1	4.70000000E-13	1.21950000E-10	2.26390000E-8	8.91134070E-5
2.44784600E+6	2.60999684E+1	3.00000000E+0	1.50000000E+1	8.10000000E-13	1.22460000E-10	2.28390000E-8	8.93066334E-5
2.45119300E+6	2.62000429E+1	3.00000000E+0	1.50000000E+1	5.80000000E-13	1.22720000E-10	2.30080000E-8	8.92956095E-5
2.45451800E+6	2.62999834E+1	3.00000000E+0	1.50000000E+1	2.40000000E-13	1.22750000E-10	2.31020000E-8	8.90913235E-5
2.45785200E+6	2.64000059E+1	3.00000000E+0	1.50000000E+1	7.10000000E-13	1.22500000E-10	2.31530000E-8	8.91375052E-5
2.46113300E+6	2.64998740E+1	3.00000000E+0	1.50000000E+1	4.60000000E-13	1.22020000E-10	2.31540000E-8	8.90116798E-5
2.46446700E+6	2.65999224E+1	3.00000000E+0	1.50000000E+1	7.80000000E-13	1.21360000E-10	2.31070000E-8	8.91440766E-5
2.46780600E+6	2.67000300E+1	3.00000000E+0	1.50000000E+1	8.30000000E-13	1.20570000E-10	2.30530000E-8	8.90609102E-5
2.47118800E+6	2.68000136E+1	3.00000000E+0	1.50000000E+1	4.90000000E-13	1.19620000E-10	2.29580000E-8	8.87567268E-5
2.47453100E+6	2.68999801E+1	3.00000000E+0	1.50000000E+1	5.60000000E-13	1.18650000E-10	2.28510000E-8	8.90344100E-5
2.47786300E+6	2.69999804E+1	3.00000000E+0	1.50000000E+1	9.60000000E-13	1.17890000E-10	2.27750000E-8	8.91684877E-5
2.48122300E+6	2.70998868E+1	3.00000000E+0	1.50000000E+1	5.20000000E-13	1.17230000E-10	2.27520000E-8	8.96172153E-5
2.48455900E+6	2.71999307E+1	3.00000000E+0	1.50000000E+1	8.90000000E-13	1.16350000E-10	2.26510000E-8	8.97413510E-5
2.48793800E+6	2.72999853E+1	3.00000000E+0	1.50000000E+1	1.16000000E-12	1.15570000E-10	2.25620000E-8	8.95980793E-5
2.49128800E+6	2.73999811E+1	3.00000000E+0	1.50000000E+1	4.90000000E-13	1.14920000E-10	2.25190000E-8	8.92983305E-5
2.49466200E+6	2.74999706E+1	3.00000000E+0	1.50000000E+1	6.10000000E-13	1.14420000E-10	2.24880000E-8	8.95595717E-5
2.49803800E+6	2.75998834E+1	3.00000000E+0	1.50000000E+1	8.60000000E-13	1.14080000E-10	2.24870000E-8	8.95888495E-5
2.50138900E+6	2.77000859E+1	3.00000000E+0	1.50000000E+1	7.60000000E-13	1.13930000E-10	2.25240000E-8	8.93095987E-5
2.50473400E+6	2.77998819E+1	3.00000000E+0	1.50000000E+1	4.00000000E-13	1.14020000E-10	2.26250000E-8	8.94808071E-5
2.50806700E+6	2.79000815E+1	3.00000000E+0	1.50000000E+1	7.80000000E-13	1.14340000E-10	2.27590000E-8	8.96987396E-5
2.51215900E+6	2.79999811E+1	3.00000000E+0	1.50000000E+1	5.20000000E-13	1.14920000E-10	2.29450000E-8	8.92974185E-5
2.51556600E+6	2.81000179E+1	3.00000000E+0	1.50000000E+1	7.50000000E-13	1.15680000E-10	2.31740000E-8	8.91812073E-5
2.51893400E+6	2.81999273E+1	3.00000000E+0	1.50000000E+1	3.00000000E-13	1.16720000E-10	2.34500000E-8	8.93399434E-5
2.52226800E+6	2.83001570E+1	3.00000000E+0	1.50000000E+1	4.20000000E-13	1.18030000E-10	2.37810000E-8	8.92757790E-5
2.52563300E+6	2.83998496E+1	3.00000000E+0	1.50000000E+1	8.40000000E-13	1.19520000E-10	2.41720000E-8	8.92628359E-5
2.52898000E+6	2.84999151E+1	3.00000000E+0	1.50000000E+1	5.20000000E-13	1.21310000E-10	2.46160000E-8	8.95510661E-5
2.53230700E+6	2.86001535E+1	3.00000000E+0	1.50000000E+1	4.40000000E-13	1.23310000E-10	2.51030000E-8	8.94824194E-5
2.53567000E+6	2.86999553E+1	3.00000000E+0	1.50000000E+1	7.20000000E-13	1.25540000E-10	2.56420000E-8	8.95792084E-5
2.53899000E+6	2.87999139E+1	3.00000000E+0	1.50000000E+1	5.90000000E-13	1.28050000E-10	2.62380000E-8	8.92162876E-5
2.54231900E+6	2.89000252E+1	3.00000000E+0	1.50000000E+1	8.10000000E-13	1.30760000E-10	2.68850000E-8	8.94300091E-5
2.54552400E+6	2.89997354E+1	3.00000000E+0	1.50000000E+1	5.50000000E-13	1.33720000E-10	2.75940000E-8	8.92228620E-5
2.54883600E+6	2.91002052E+1	3.00000000E+0	1.50000000E+1	6.00000000E-13	1.36930000E-10	2.83500000E-8	8.93539535E-5
2.55209100E+6	2.91998407E+1	3.00000000E+0	1.50000000E+1	6.20000000E-13	1.40330000E-10	2.91430000E-8	8.91533570E-5
2.55542100E+6	2.93002311E+1	3.00000000E+0	1.50000000E+1	7.10000000E-13	1.43890000E-10	2.99940000E-8	8.97790003E-5
2.55862600E+6	2.93996896E+1	3.00000000E+0	1.50000000E+1	6.70000000E-13	1.47640000E-10	3.08940000E-8	8.96576392E-5
2.56195400E+6	2.95001811E+1	3.00000000E+0	1.50000000E+1	1.30000000E-13	1.51570000E-10	3.18270000E-8	8.90902685E-5
2.56531700E+6	2.96001449E+1	3.00000000E+0	1.50000000E+1	5.00000000E-13	1.55610000E-10	3.27630000E-8	8.91932564E-5
2.56851900E+6	2.96998514E+1	3.00000000E+0	1.50000000E+1	7.10000000E-13	1.59710000E-10	3.37650000E-8	8.89867561E-5
2.57171900E+6	2.97997965E+1	3.00000000E+0	1.50000000E+1	7.00000000E-13	1.63940000E-10	3.47570000E-8	8.94575553E-5
2.57508500E+6	2.99001974E+1	3.00000000E+0	1.50000000E+1	9.50000000E-13	1.68170000E-10	3.57640000E-8	8.92572927E-5
2.57828100E+6	2.99998062E+1	3.00000000E+0	1.50000000E+1	4.40000000E-13	1.72380000E-10	3.67790000E-8	8.92314868E-5
2.58153600E+6	3.01002290E+1	3.00000000E+0	1.50000000E+1	7.60000000E-13	1.76520000E-10	3.77700000E-8	8.91919302E-5
2.58475000E+6	3.01995377E+1	3.00000000E+0	1.50000000E+1	5.70000000E-13	1.80600000E-10	3.87510000E-8	8.92152863E-5
2.58795400E+6	3.03002541E+1	3.00000000E+0	1.50000000E+1	7.30000000E-13	1.84440000E-10	3.96990000E-8	8.93482464E-5
2.59116700E+6	3.03999076E+1	3.00000000E+0	1.50000000E+1	8.10000000E-13	1.88150000E-10	4.05970000E-8	8.94727575E-5
2.59449200E+6	3.05002187E+1	3.00000000E+0	1.50000000E+1	9.40000000E-13	1.91520000E-10	4.14300000E-8	8.93384712E-5
2.59771600E+6	3.05997402E+1	3.00000000E+0	1.50000000E+1	7.90000000E-13	1.94600000E-10	4.21960000E-8	8.93263476E-5
2.60098000E+6	3.07001444E+1	3.00000000E+0	1.50000000E+1	5.40000000E-13	1.97290000E-10	4.28700000E-8	8.92008292E-5
2.60419600E+6	3.07998918E+1	3.00000000E+0	1.50000000E+1	6.90000000E-13	1.99530000E-10	4.34580000E-8	8.89332520E-5
2.60744200E+6	3.09002116E+1	3.00000000E+0	1.50000000E+1	5.50000000E-13	2.01260000E-10	4.39160000E-8	8.93081682E-5
2.61066300E+6	3.09999305E+1	3.00000000E+0	1.50000000E+1	8.30000000E-13	2.02440000E-10	4.42560000E-8	8.90156643E-5
2.61393100E+6	3.10999789E+1	3.00000000E+0	1.50000000E+1	7.80000000E-13	2.03040000E-10	4.44660000E-8	8.92689513E-5
2.61720600E+6	3.11999594E+1	3.00000000E+0	1.50000000E+1	2.30000000E-13	2.03010000E-10	4.45380000E-8	8.91587036E-5
2.62044700E+6	3.13000244E+1	3.00000000E+0	1.50000000E+1	4.90000000E-13	2.02330000E-10	4.44480000E-8	8.92859387E-5
2.62366700E+6	3.13999276E+1	3.00000000E+0	1.50000000E+1	8.50000000E-13	2.01020000E-10	4.42150000E-8	8.90078710E-5
2.62688900E+6	3.14999031E+1	3.00000000E+0	1.50000000E+1	4.70000000E-13	1.99120000E-10	4.38440000E-8	8.90849339E-5
2.63013900E+6	3.16001093E+1	3.00000000E+0	1.50000000E+1	6.90000000E-13	1.96600000E-10	4.33440000E-8	8.92838257E-5
2.63334400E+6	3.17001338E+1	3.00000000E+0	1.50000000E+1	7.40000000E-13	1.93660000E-10	4.27430000E-8	8.91634749E-5
2.63655500E+6	3.17998847E+1	3.00000000E+0	1.50000000E+1	4.70000000E-13	1.90270000E-10	4.20210000E-8	8.94035893E-5
2.63983100E+6	3.19000990E+1	3.00000000E+0	1.50000000E+1	8.00000000E-13	1.86440000E-10	4.12080000E-8	8.91921746E-5
2.64303600E+6	3.20001102E+1	3.00000000E+0	1.50000000E+1	2.40000000E-13	1.82270000E-10	4.03120000E-8	8.90175866E-5
2.64624200E+6	3.20998243E+1	3.00000000E+0	1.50000000E+1	1.04000000E-12	1.77880000E-10	3.93640000E-8	8.87467252E-5
2.64944400E+6	3.22002465E+1	3.00000000E+0	1.50000000E+1	6.50000000E-13	1.73290000E-10	3.83710000E-8	8.88662802E-5
2.65265900E+6	3.22997644E+1	3.00000000E+0	1.50000000E+1	2.50000000E-13	1.68570000E-10	3.73370000E-8	8.93305915E-5
2.65585300E+6	3.23998136E+1	3.00000000E+0	1.50000000E+1	8.50000000E-13	1.63850000E-10	3.63000000E-8	8.93525677E-5
2.65905700E+6	3.25002256E+1	3.00000000E+0	1.50000000E+1	6.90000000E-13	1.59190000E-10	3.52870000E-8	8.90372382E-5
2.66230100E+6	3.25999593E+1	3.00000000E+0	1.50000000E+1	9.50000000E-13	1.54440000E-10	3.42450000E-8	8.89783995E-5
2.66553100E+6	3.26997827E+1	3.00000000E+0	1.50000000E+1	4.60000000E-13	1.49840000E-10	3.32280000E-8	8.90975850E-5
2.66874700E+6	3.28000435E+1	3.00000000E+0	1.50000000E+1	6.30000000E-13	1.45390000E-10	3.22540000E-8	8.93526422E-5
2.67195400E+6	3.29003019E+1	3.00000000E+0	1.50000000E+1	5.60000000E-13	1.41010000E-10	3.12930000E-8	8.94048648E-5
2.67595500E+6	3.29999293E+1	3.00000000E+0	1.50000000E+1	2.90000000E-13	1.36860000E-10	3.03710000E-8	8.89943378E-5
2.67915600E+6	3.30998037E+1	3.00000000E+0	1.50000000E+1	4.60000000E-13	1.32790000E-10	2.94830000E-8	8.90008973E-5
2.68237900E+6	3.32001044E+1	3.00000000E+0	1.50000000E+1	5.70000000E-13	1.28930000E-10	2.86230000E-8	8.91955512E-5
2.68557500E+6	3.33000181E+1	3.00000000E+0	1.50000000E+1	7.90000000E-13	1.25270000E-10	2.78220000E-8	8.92323183E-5
2.68878900E+6	3.33998057E+1	3.00000000E+0	1.50000000E+1	6.00000000E-13	1.21640000E-10	2.70230000E-8	8.91303526E-5
2.69204100E+6	3.34999181E+1	3.00000000E+0	1.50000000E+1	9.80000000E-13	1.18260000E-10	2.62780000E-8	8.88749646E-5
2.69528100E+6	3.35998944E+1	3.00000000E+0	1.50000000E+1	6.80000000E-13	1.15010000E-10	2.55610000E-8	8.90103476E-5
2.69848600E+6	3.37000052E+1	3.00000000E+0	1.50000000E+1	7.10000000E-13	1.11850000E-10	2.48610000E-8	8.92621117E-5
2.70169400E+6	3.37998742E+1	3.00000000E+0	1.50000000E+1	7.10000000E-13	1.08800000E-10	2.41860000E-8	8.95839053E-5
2.70492300E+6	3.38998673E+1	3.00000000E+0	1.50000000E+1	3.90000000E-13	1.05850000E-10	2.35420000E-8	8.94088852E-5
2.70815700E+6	3.39997927E+1	3.00000000E+0	1.50000000E+1	5.30000000E-13	1.02970000E-10	2.29060000E-8	8.91739058E-5
2.71136600E+6	3.41001188E+1	3.00000000E+0	1.50000000E+1	4.80000000E-13	1.00180000E-10	2.22910000E-8	8.90367823E-5
2.71457000E+6	3.41999874E+1	3.00000000E+0	1.50000000E+1	6.80000000E-13	9.74500000E-11	2.16990000E-8	8.90140312E-5
2.71778000E+6	3.42999620E+1	3.00000000E+0	1.50000000E+1	6.60000000E-13	9.47700000E-11	2.11010000E-8	8.89869558E-5
2.72098500E+6	3.44002328E+1	3.00000000E+0	1.50000000E+1	1.15000000E-12	9.22300000E-11	2.05370000E-8	8.87010918E-5
2.72419000E+6	3.44997299E+1	3.00000000E+0	1.50000000E+1	6.70000000E-13	8.97000000E-11	1.99690000E-8	8.91098904E-5
2.72747900E+6	3.46001955E+1	3.00000000E+0	1.50000000E+1	5.60000000E-13	8.72300000E-11	1.94260000E-8	8.90181052E-5
2.73074400E+6	3.46999688E+1	3.00000000E+0	1.50000000E+1	7.70000000E-13	8.48900000E-11	1.89110000E-8	8.91254174E-5
2.73397600E+6	3.47998244E+1	3.00000000E+0	1.50000000E+1	7.20000000E-13	8.25900000E-11	1.84000000E-8	8.93275755E-5
2.73720600E+6	3.49002564E+1	3.00000000E+0	1.50000000E+1	7.60000000E-13	8.04100000E-11	1.79150000E-8	8.92264949E-5
2.74050900E+6	3.49997683E+1	3.00000000E+0	1.50000000E+1	4.60000000E-13	7.83500000E-11	1.74640000E-8	8.90263068E-5
2.74373500E+6	3.50998493E+1	3.00000000E+0	1.50000000E+1	5.70000000E-13	7.65100000E-11	1.70590000E-8	8.93883037E-5
2.74695200E+6	3.51999980E+1	3.00000000E+0	1.50000000E+1	4.00000000E-13	7.46900000E-11	1.66630000E-8	8.95251798E-5
2.75019400E+6	3.53000071E+1	3.00000000E+0	1.50000000E+1	2.90000000E-13	7.28600000E-11	1.62560000E-8	8.97222626E-5
2.75341500E+6	3.53997669E+1	3.00000000E+0	1.50000000E+1	7.10000000E-13	7.10800000E-11	1.58650000E-8	8.93680768E-5
2.75664700E+6	3.55001952E+1	3.00000000E+0	1.50000000E+1	9.00000000E-13	6.93700000E-11	1.54780000E-8	8.96723675E-5
2.75991600E+6	3.55998486E+1	3.00000000E+0	1.50000000E+1	4.40000000E-13	6.77900000E-11	1.51320000E-8	8.91596662E-5
2.76312400E+6	3.56999589E+1	3.00000000E+0	1.50000000E+1	7.40000000E-13	6.62200000E-11	1.47770000E-8	8.94367861E-5
2.76635900E+6	3.58000055E+1	3.00000000E+0	1.50000000E+1	6.20000000E-13	6.47100000E-11	1.44390000E-8	8.92724024E-5
2.76962600E+6	3.58998772E+1	3.00000000E+0	1.50000000E+1	5.40000000E-13	6.33300000E-11	1.41350000E-8	8.90731202E-5
2.77290500E+6	3.59998841E+1	3.00000000E+0	1.50000000E+1	6.00000000E-13	6.20100000E-11	1.38440000E-8	8.93887626E-5
2.77614600E+6	3.60998108E+1	3.00000000E+0	1.50000000E+1	6.10000000E-13	6.07100000E-11	1.35680000E-8	8.97270816E-5
2.77938700E+6	3.62000796E+1	3.00000000E+0	1.50000000E+1	6.80000000E-13	5.95200000E-11	1.33050000E-8	8.92772751E-5
2.78260900E+6	3.62998302E+1	3.00000000E+0	1.50000000E+1	6.70000000E-13	5.83400000E-11	1.30440000E-8	8.95836758E-5
2.78583300E+6	3.64001321E+1	3.00000000E+0	1.50000000E+1	3.60000000E-13	5.72200000E-11	1.27770000E-8	8.92461853E-5
2.78904400E+6	3.65000101E+1	3.00000000E+0	1.50000000E+1	7.00000000E-13	5.61200000E-11	1.25450000E-8	8.92840969E-5
2.79227300E+6	3.66001093E+1	3.00000000E+0	1.50000000E+1	6.10000000E-13	5.50800000E-11	1.23210000E-8	8.92974841E-5
2.79549600E+6	3.66998786E+1	3.00000000E+0	1.50000000E+1	5.60000000E-13	5.40300000E-11	1.20830000E-8	8.95636337E-5
2.79871700E+6	3.67999720E+1	3.00000000E+0	1.50000000E+1	8.30000000E-13	5.30800000E-11	1.18650000E-8	8.92649638E-5
2.80196300E+6	3.68999452E+1	3.00000000E+0	1.50000000E+1	6.60000000E-13	5.21100000E-11	1.16610000E-8	8.93705951E-5
2.80519100E+6	3.70000157E+1	3.00000000E+0	1.50000000E+1	8.40000000E-13	5.11400000E-11	1.14350000E-8	8.94902932E-5
2.80827200E+6	3.70990559E+1	3.00000000E+0	1.50000000E+1	7.80000000E-13	5.02100000E-11	1.12430000E-8	8.92342316E-5
2.81154800E+6	3.72005499E+1	3.00000000E+0	1.50000000E+1	4.70000000E-13	4.92600000E-11	1.10200000E-8	8.92332005E-5
2.81476800E+6	3.73000996E+1	3.00000000E+0	1.50000000E+1	6.50000000E-13	4.83800000E-11	1.08330000E-8	8.94242662E-5
2.81797600E+6	3.74000692E+1	3.00000000E+0	1.50000000E+1	5.80000000E-13	4.74500000E-11	1.06330000E-8	8.96292764E-5
2.82119500E+6	3.75000015E+1	3.00000000E+0	1.50000000E+1	3.70000000E-13	4.65800000E-11	1.04270000E-8	8.94652533E-5
2.82441100E+6	3.75997762E+1	3.00000000E+0	1.50000000E+1	5.70000000E-13	4.57100000E-11	1.02310000E-8	8.90869128E-5
2.82762900E+6	3.77000832E+1	3.00000000E+0	1.50000000E+1	4.20000000E-13	4.48400000E-11	1.00460000E-8	8.89466153E-5
2.83072000E+6	3.77994091E+1	3.00000000E+0	1.50000000E+1	4.40000000E-13	4.39900000E-11	9.86800000E-9	8.95165014E-5
2.83396200E+6	3.79005508E+1	3.00000000E+0	1.50000000E+1	8.60000000E-13	4.31800000E-11	9.67500000E-9	8.93518703E-5
2.83781600E+6	3.79998752E+1	3.00000000E+0	1.50000000E+1	5.60000000E-13	4.23800000E-11	9.49700000E-9	8.93893229E-5
2.84094800E+6	3.80991285E+1	3.00000000E+0	1.50000000E+1	7.80000000E-13	4.16200000E-11	9.32700000E-9	8.94095647E-5
2.84416600E+6	3.82009287E+1	3.00000000E+0	1.50000000E+1	5.20000000E-13	4.08500000E-11	9.14800000E-9	8.98862141E-5
2.84725100E+6	3.82994385E+1	3.00000000E+0	1.50000000E+1	5.40000000E-13	4.01400000E-11	8.98800000E-9	8.94232767E-5
2.85044300E+6	3.84003855E+1	3.00000000E+0	1.50000000E+1	9.30000000E-13	3.93800000E-11	8.82100000E-9	8.92673778E-5
2.85355000E+6	3.84998069E+1	3.00000000E+0	1.50000000E+1	6.60000000E-13	3.87000000E-11	8.65800000E-9	8.91512143E-5
2.85667900E+6	3.85999879E+1	3.00000000E+0	1.50000000E+1	9.60000000E-13	3.80100000E-11	8.51600000E-9	8.94584613E-5
2.86001700E+6	3.87002022E+1	3.00000000E+0	1.50000000E+1	3.50000000E-13	3.73400000E-11	8.34600000E-9	8.94167858E-5
2.86332000E+6	3.88002000E+1	3.00000000E+0	1.50000000E+1	7.50000000E-13	3.66900000E-11	8.20400000E-9	8.93342542E-5
2.86643700E+6	3.88991086E+1	3.00000000E+0	1.50000000E+1	5.80000000E-13	3.60500000E-11	8.06200000E-9	8.91103374E-5
2.86952500E+6	3.90005112E+1	3.00000000E+0	1.50000000E+1	9.40000000E-13	3.53900000E-11	7.91700000E-9	8.92749088E-5
2.87262400E+6	3.90995705E+1	3.00000000E+0	1.50000000E+1	8.60000000E-13	3.47500000E-11	7.77300000E-9	8.89526712E-5
2.87572400E+6	3.92001388E+1	3.00000000E+0	1.50000000E+1	3.80000000E-13	3.41400000E-11	7.63900000E-9	8.93285739E-5
2.87891600E+6	3.93003423E+1	3.00000000E+0	1.50000000E+1	7.30000000E-13	3.35400000E-11	7.51300000E-9	8.95408618E-5
2.88200400E+6	3.93995372E+1	3.00000000E+0	1.50000000E+1	4.80000000E-13	3.29600000E-11	7.36500000E-9	8.91389923E-5
2.88521800E+6	3.95003815E+1	3.00000000E+0	1.50000000E+1	7.40000000E-13	3.23400000E-11	7.23000000E-9	8.96370816E-5
2.88838800E+6	3.95995650E+1	3.00000000E+0	1.50000000E+1	5.70000000E-13	3.17200000E-11	7.10100000E-9	8.92463939E-5
2.89153700E+6	3.96997630E+1	3.00000000E+0	1.50000000E+1	7.30000000E-13	3.11600000E-11	6.96700000E-9	8.95986872E-5
2.89462500E+6	3.98002104E+1	3.00000000E+0	1.50000000E+1	6.50000000E-13	3.05700000E-11	6.83100000E-9	8.94978630E-5
2.89771900E+6	3.98999966E+1	3.00000000E+0	1.50000000E+1	6.20000000E-13	3.00000000E-11	6.70000000E-9	8.91185599E-5
2.90083200E+6	4.00001537E+1	3.00000000E+0	1.50000000E+1	2.50000000E-13	2.94600000E-11	6.57100000E-9	8.94183355E-5
2.90394100E+6	4.00997637E+1	3.00000000E+0	1.50000000E+1	5.00000000E-13	2.88900000E-11	6.44300000E-9	8.93022256E-5
2.90710500E+6	4.02000031E+1	3.00000000E+0	1.50000000E+1	3.90000000E-13	2.83500000E-11	6.31500000E-9	8.92905193E-5
2.91019200E+6	4.02991524E+1	3.00000000E+0	1.50000000E+1	9.00000000E-13	2.77800000E-11	6.19800000E-9	8.91523408E-5
2.91334500E+6	4.04003924E+1	3.00000000E+0	1.50000000E+1	9.00000000E-13	2.72500000E-11	6.07100000E-9	8.94612538E-5
2.91645200E+6	4.04997297E+1	3.00000000E+0	1.50000000E+1	4.80000000E-13	2.67400000E-11	5.95400000E-9	8.95802932E-5
2.91955600E+6	4.05999608E+1	3.00000000E+0	1.50000000E+1	7.70000000E-13	2.62100000E-11	5.83300000E-9	8.88637112E-5
2.92269300E+6	4.07001478E+1	3.00000000E+0	1.50000000E+1	8.00000000E-13	2.57100000E-11	5.72000000E-9	8.95176428E-5
2.92579300E+6	4.07998783E+1	3.00000000E+0	1.50000000E+1	7.80000000E-13	2.52200000E-11	5.60400000E-9	8.91245412E-5
2.92887900E+6	4.08994154E+1	3.00000000E+0	1.50000000E+1	7.20000000E-13	2.47800000E-11	5.49300000E-9	8.90866028E-5
2.93201200E+6	4.10005381E+1	3.00000000E+0	1.50000000E+1	3.80000000E-13	2.42700000E-11	5.37200000E-9	8.90620308E-5
2.93512400E+6	4.10996775E+1	3.00000000E+0	1.50000000E+1	9.90000000E-13	2.38500000E-11	5.28400000E-9	8.92722862E-5
2.93823800E+6	4.11999911E+1	3.00000000E+0	1.50000000E+1	4.70000000E-13	2.34100000E-11	5.17500000E-9	8.92509448E-5
2.94133300E+6	4.12998198E+1	3.00000000E+0	1.50000000E+1	9.10000000E-13	2.29900000E-11	5.07000000E-9	8.92768847E-5
2.94444200E+6	4.13998534E+1	3.00000000E+0	1.50000000E+1	1.11000000E-12	2.25300000E-11	4.98100000E-9	8.88544278E-5
2.94753800E+6	4.14999506E+1	3.00000000E+0	1.50000000E+1	6.20000000E-13	2.21200000E-11	4.89200000E-9	8.94007968E-5
2.95066300E+6	4.15998259E+1	3.00000000E+0	1.50000000E+1	4.80000000E-13	2.17500000E-11	4.80600000E-9	8.93942880E-5
2.95376800E+6	4.16998990E+1	3.00000000E+0	1.50000000E+1	1.05000000E-12	2.13500000E-11	4.70500000E-9	8.87532549E-5
2.95686700E+6	4.17998836E+1	3.00000000E+0	1.50000000E+1	5.60000000E-13	2.10100000E-11	4.63700000E-9	8.93208729E-5
2.96001200E+6	4.19000619E+1	3.00000000E+0	1.50000000E+1	7.20000000E-13	2.06300000E-11	4.54400000E-9	8.97048342E-5
2.96311200E+6	4.19998567E+1	3.00000000E+0	1.50000000E+1	6.70000000E-13	2.03200000E-11	4.46600000E-9	8.93196302E-5
2.96622600E+6	4.20995486E+1	3.00000000E+0	1.50000000E+1	1.13000000E-12	2.00000000E-11	4.38100000E-9	8.89180945E-5
2.96931700E+6	4.21998605E+1	3.00000000E+0	1.50000000E+1	1.07000000E-12	1.96500000E-11	4.30700000E-9	8.92317938E-5
2.97243400E+6	4.23002130E+1	3.00000000E+0	1.50000000E+1	9.60000000E-13	1.92900000E-11	4.23600000E-9	8.89055745E-5
2.97558800E+6	4.24000155E+1	3.00000000E+0	1.50000000E+1	4.30000000E-13	1.89700000E-11	4.17000000E-9	8.93230068E-5
2.97868500E+6	4.25002901E+1	3.00000000E+0	1.50000000E+1	5.40000000E-13	1.87200000E-11	4.09500000E-9	8.89234559E-5
2.98178000E+6	4.25994089E+1	3.00000000E+0	1.50000000E+1	8.70000000E-13	1.84000000E-11	4.02700000E-9	8.90621202E-5
2.98491700E+6	4.27003320E+1	3.00000000E+0	1.50000000E+1	7.80000000E-13	1.81500000E-11	3.96900000E-9	8.88769286E-5
2.98801600E+6	4.27997885E+1	3.00000000E+0	1.50000000E+1	6.50000000E-13	1.78600000E-11	3.90800000E-9	8.89039712E-5
2.99109900E+6	4.28994086E+1	3.00000000E+0	1.50000000E+1	8.10000000E-13	1.75900000E-11	3.84100000E-9	8.89214085E-5
2.99507400E+6	4.30005511E+1	3.00000000E+0	1.50000000E+1	8.80000000E-13	1.73100000E-11	3.77800000E-9	8.86964129E-5
2.99818100E+6	4.31000465E+1	3.00000000E+0	1.50000000E+1	9.30000000E-13	1.70800000E-11	3.72600000E-9	8.93721925E-5
3.00127800E+6	4.31996984E+1	3.00000000E+0	1.50000000E+1	4.80000000E-13	1.68200000E-11	3.66600000E-9	8.91474949E-5
3.00438700E+6	4.33001186E+1	3.00000000E+0	1.50000000E+1	6.60000000E-13	1.65500000E-11	3.60700000E-9	8.90708940E-5
3.00746700E+6	4.33997755E+1	3.00000000E+0	1.50000000E+1	7.40000000E-13	1.63300000E-11	3.54900000E-9	8.92771768E-5
3.01054600E+6	4.34998921E+1	3.00000000E+0	1.50000000E+1	7.70000000E-13	1.61100000E-11	3.49800000E-9	8.90895652E-5
3.01366300E+6	4.36003164E+1	3.00000000E+0	1.50000000E+1	7.80000000E-13	1.58600000E-11	3.44400000E-9	8.92919349E-5
3.01674800E+6	4.36998010E+1	3.00000000E+0	1.50000000E+1	7.60000000E-13	1.56200000E-11	3.37400000E-9	8.90471565E-5
3.01984700E+6	4.38000541E+1	3.00000000E+0	1.50000000E+1	5.60000000E-13	1.53800000E-11	3.33500000E-9	8.92041670E-5
3.02295500E+6	4.38993510E+1	3.00000000E+0	1.50000000E+1	6.60000000E-13	1.51500000E-11	3.27400000E-9	8.88565020E-5
3.02605900E+6	4.40003647E+1	3.00000000E+0	1.50000000E+1	9.20000000E-13	1.49500000E-11	3.22800000E-9	8.87606935E-5
3.02914700E+6	4.40996195E+1	3.00000000E+0	1.50000000E+1	7.40000000E-13	1.46900000E-11	3.16800000E-9	8.90323775E-5
3.03224100E+6	4.41998020E+1	3.00000000E+0	1.50000000E+1	7.40000000E-13	1.45000000E-11	3.12900000E-9	8.92733144E-5
3.03533000E+6	4.42999596E+1	3.00000000E+0	1.50000000E+1	6.40000000E-13	1.42800000E-11	3.08000000E-9	8.95428317E-5
3.03843700E+6	4.43994445E+1	3.00000000E+0	1.50000000E+1	6.70000000E-13	1.40300000E-11	3.00500000E-9	8.93763857E-5
3.04153200E+6	4.45001864E+1	3.00000000E+0	1.50000000E+1	7.30000000E-13	1.38100000E-11	2.96400000E-9	8.91349869E-5
3.04461800E+6	4.45999235E+1	3.00000000E+0	1.50000000E+1	7.00000000E-13	1.35700000E-11	2.89900000E-9	8.97458839E-5
3.04772400E+6	4.46997822E+1	3.00000000E+0	1.50000000E+1	6.80000000E-13	1.33600000E-11	2.85700000E-9	8.91032951E-5
3.05081000E+6	4.47997611E+1	3.00000000E+0	1.50000000E+1	5.50000000E-13	1.30800000E-11	2.79100000E-9	8.90351104E-5
3.05389200E+6	4.49003529E+1	3.00000000E+0	1.50000000E+1	4.80000000E-13	1.28300000E-11	2.73600000E-9	8.94543129E-5
3.05698400E+6	4.50000737E+1	3.00000000E+0	1.50000000E+1	7.30000000E-13	1.25600000E-11	2.66700000E-9	8.96378862E-5
