G:\BEAR_storage\User_Experiments\20220317_arneodo\Tmp\file(1)_tmp_0050.txt
Ring Energy (GeV): 2
Lifetime (hours): 0
Scan beginning: 3/19/2022	10:33:43 AM
Ring current (mA): 309.36
Source position: x (mm): -0.002 x' (mrad): 0.002 y (mm): 0.003 y' (mrad): 0.004
Scan end: 3/19/2022	10:52:09 AM
Ring current (mA): 308.56
Source position: x (mm): -0.001 x' (mrad): 0.001 y (mm): 0.001 y' (mrad): 0.004

SCAN TYPE: PHOTON ENERGY VS VAR_1 VS VAR_2

FILE INFO: FILE INFO:

SCAN PARAMETERS
waiting time (ms): 0
Number of scans: 1
Current scan number: 1
DARK OFF 
PREDARK OFF 

SCAN PARAMETERS
Regions configuration: 
number of regions: 7
Mirror grating scan: on
Timed acquisition: off
Region 1:
Initial energy (eV): 40.000000
Final energy (eV): 72.000000
Delta energy (eV): 1.000000
Deviation angle choice: Higher order rejection
Deviation angle (°): NaN
Al filter
G1200 channel
range keithley B 20 nA
range keithley C 2 uA
range keithley A 20 nA
Var_1: PsiC 0.000000
Var_2: PhiM0.000000
Bias CEM (V): 0.000000
Bias Keithley B (V): -30.000000
Name region: 
Region 2:
Initial energy (eV): 70.000000
Final energy (eV): 102.000000
Delta energy (eV): 1.000000
Deviation angle choice: Higher order rejection
Deviation angle (°): NaN
Si filter
G1200 channel
range keithley B 20 nA
range keithley C 2 uA
range keithley A 20 nA
Var_1: PsiC 0.000000
Var_2: PhiM0.000000
Bias CEM (V): 0.000000
Bias Keithley B (V): -30.000000
Name region: 
Region 3:
Initial energy (eV): 98.000000
Final energy (eV): 260.000000
Delta energy (eV): 1.000000
Deviation angle choice: Higher order rejection
Deviation angle (°): NaN
Full Beam
G1200 channel
range keithley B 20 nA
range keithley C 20 uA
range keithley A 200 nA
Var_1: PsiC 0.000000
Var_2: PhiM0.000000
Bias CEM (V): 0.000000
Bias Keithley B (V): -30.000000
Name region: 
Region 4:
Initial energy (eV): 255.000000
Final energy (eV): 320.000000
Delta energy (eV): 1.000000
Deviation angle choice: Higher order rejection
Deviation angle (°): NaN
filter Ag 0.6 um
G1200 channel
range keithley B 200 pA
range keithley C 2 uA
range keithley A 200 pA
Var_1: PsiC 0.000000
Var_2: PhiM0.000000
Bias CEM (V): 0.000000
Bias Keithley B (V): -30.000000
Name region: 
Region 5:
Initial energy (eV): 255.000000
Final energy (eV): 320.000000
Delta energy (eV): 1.000000
Deviation angle choice: Higher order rejection
Deviation angle (°): NaN
Full Beam
G1200 channel
range keithley B 200 pA
range keithley C 2 uA
range keithley A 200 pA
Var_1: PsiC 0.000000
Var_2: PhiM0.000000
Bias CEM (V): 0.000000
Bias Keithley B (V): -30.000000
Name region: 
Region 6:
Initial energy (eV): 315.000000
Final energy (eV): 1200.000000
Delta energy (eV): 5.000000
Deviation angle choice: Higher order rejection
Deviation angle (°): NaN
Full Beam
G1200 channel
range keithley B 20 nA
range keithley C 2 uA
range keithley A 20 nA
Var_1: PsiC 0.000000
Var_2: PhiM0.000000
Bias CEM (V): 0.000000
Bias Keithley B (V): -30.000000
Name region: 
Region 7:
Initial energy (eV): 1190.000000
Final energy (eV): 1500.000000
Delta energy (eV): 5.000000
Deviation angle choice: Higher order rejection
Deviation angle (°): NaN
filter Ag 0.6 um
G1200 channel
range keithley B 200 pA
range keithley C 2 uA
range keithley A 200 pA
Var_1: PsiC 0.000000
Var_2: PhiM0.000000
Bias CEM (V): 0.000000
Bias Keithley B (V): -30.000000
Name region: 

BEAR MONOCHROMATOR CONFIGURATION: 
Current Grating Position:     -151128.70
Current Mirror Position: 2557.1
Current Grating: G1200
P2 phiz position:  0.0000
Mono axis position: 25.0000
Current Photon Energy (eV): 121.040
Current Deviation Angle: 155.000
Vertical Exit Slits (um): 100.000
Exit slit y axis position: 1.3625
Horizontal Exit Slits (um):  889.156
Exit slit z axis position: 1.9229
Mitutoyo position (mm): 

Dose on sample (mJ/cm^2): NaN

ENERGY CALIBRATION:
offset grating G1200: yes
Delta 0 order G1200:  -800.0
offset grating G1800: not
Delta 0 order G1800:  0.0
offset grating GNIM: not
Delta 0 order GNIM:  0.0
ZERO ORDER POSITIONS:
Grating G1200: Mirror position:  4938.0
Grating position: -105355.0
Grating G1800: 
Mirror position:  4938.0
Grating position: -106345.0
Grating GNIM: 
Mirror position:  10000.0
Grating position: 227300.0

Initial filter: Full Beam

EXPERIMENTAL CHAMBER CONFIGURATION: 
PsiC (deg):   -0.000186
Phi Analyzer (degrees): 89.992308
Theta Manipulator (degrees): -44.000040
Theta Analyzer (degrees): -135.001468
PhiM (degrees): -0.004103
XM (mm): 0.000713
YM (mm): 19.932987
ZM (mm): (Warning: for kinetic energy scans, 
this parameter is given in the scan settings) 
-6.601438
TiltM (°): 0.000138

ELECTRON ANALYZER CONFIGURATION: 
Current Kinetik energy (eV): 35.0
Mode: DE = COST
Pass Energy (eV):  50.000
CEM: ON
Bias Front-Back CEM (V): 3499.561
Bias Back-Collector CEM (V): 100.874
Bias Retard-Front CEM: 100.087COIL VALUES
Ix (amps):2.820
Iy (amps): 6.789
Iz (amps): 37.337

POLARIZATION SELECTOR CONFIGURATION:
Psi1 (rad): -0.001665535
Psi2 (rad): 0.001417093
Z min position (mm): 46.599650
DZ position (mm): 18.599100
Zmin 0 (mm): 66.500000
DZ0 (mm): 53.000000

BEAM SELECTOR CONFIGURATION:
Zmin position (mm): NaN
DZ position (mm): NaN
Y+ position (mm): NaN
Y- position (mm): NaN

CHANNEL ELECTRON MULTIPLIER CONFIGURATION:
CEM configured: OFF
Bias CEM: 0.000000

FLUORESCENCE DETECTOR CONFIGURATION:
Not configured

LUMINESCENCE MONOCHROMATOR CONFIGURATION:
Optical fiber position (mm): 0.000000
Optical fiber Switch inside: OFF
Optical fiber Switch outside: ON
Monochromator wavelength (A): 0.000000
Limit Switches: ON

I0 MONITOR PARAMETERS:
I0 detector position(mm): -0.000000E+0
Lower switch: OFF
Upper switch: OFF
Valve status:open

PRESSURE PARAMETERS:
Monitor chamber pressure (mbar): 8.96e-10
Experimental chamber pressure -ION GAUGE-(mbar): 0.000000E+0

XMCD PARAMETERS:
Xmcd OFF
Xmcd Direction -
Xmcd current (A): 0.000000

Gated scan off

Instrument 1: AMMETER KEITHLEY 6517A B
Measure type: Current
range type: set range value
range value (ampere):  200 pA
Integration time:  set NPLC value
NPLC value: 10.000
Digital filter count: 2
SAMPLE BIAS (V): -30.000
Vsource: ON
Output Voltage value: 30.000
Vsource range: 1000 V

Range Keithley B changed to 20 nA

Range Keithley B changed to 200 pA

Range Keithley B changed to 20 nA

Range Keithley B changed to 200 pA

Range Keithley B changed to 20 nA

Range Keithley B changed to 200 pA

Range Keithley B changed to 20 nA

Range Keithley B changed to 200 nA

Range Keithley B changed to 200 pA

Range Keithley B changed to 20 nA

Range Keithley B changed to 200 pA

Range Keithley B changed to 20 nA

Range Keithley B changed to 200 pA

Range Keithley B changed to 20 nA

Range Keithley B changed to 200 pA

Range Keithley B changed to 20 nA

Range Keithley B changed to 200 pA

Range Keithley B changed to 20 nA

Range Keithley B changed to 200 pA

Range Keithley B changed to 20 nA

Range Keithley B changed to 200 pA

Range Keithley B changed to 20 nA

Range Keithley B changed to 200 pA

Range Keithley B changed to 20 nA

Range Keithley B changed to 200 pA

Range Keithley B changed to 20 nA

Range Keithley B changed to 200 pA

Range Keithley B changed to 20 nA

Range Keithley B changed to 200 pA

Range Keithley B changed to 20 nA

Range Keithley B changed to 200 pA

Range Keithley B changed to 20 nA

Range Keithley B changed to 200 pA

Instrument 2: AMMETER KEITHLEY 6517A A
Measure type: Current
range type: set range value
range value (ampere):  200 nA
Integration time:  set NPLC value
NPLC value: 10.000
Digital filter count: 2
Vsource: OFF
Output Voltage value: -0.000
Vsource range: 100 V
Trigger source: bus

Range Keithley A changed to 20 nA

Range Keithley A changed to 200 nA

Range Keithley A changed to 200 pA

Range Keithley A changed to 20 nA

Range Keithley A changed to 200 pA

Range Keithley A changed to 20 nA

Range Keithley A changed to 200 nA

Range Keithley A changed to 200 pA

Range Keithley A changed to 20 nA

Range Keithley A changed to 200 pA

Range Keithley A changed to 20 nA

Range Keithley A changed to 200 nA

Range Keithley A changed to 200 pA

Range Keithley A changed to 20 nA

Range Keithley A changed to 200 pA

Range Keithley A changed to 20 nA

Range Keithley A changed to 200 pA

Range Keithley A changed to 20 nA

Range Keithley A changed to 200 pA

Range Keithley A changed to 20 nA

Range Keithley A changed to 200 pA

Range Keithley A changed to 20 nA

Range Keithley A changed to 200 nA

Range Keithley A changed to 200 pA

Range Keithley A changed to 20 nA

Range Keithley A changed to 200 pA

Range Keithley A changed to 20 nA

Range Keithley A changed to 200 nA

Range Keithley A changed to 200 pA

Range Keithley A changed to 20 nA

Range Keithley A changed to 200 nA

Range Keithley A changed to 200 pA

Range Keithley A changed to 20 nA

Range Keithley A changed to 200 pA

Range Keithley A changed to 20 nA

Range Keithley A changed to 200 pA

Range Keithley A changed to 20 nA

Range Keithley A changed to 200 nA

Range Keithley A changed to 200 pA

Range Keithley A changed to 20 nA

Range Keithley A changed to 200 pA

Range Keithley A changed to 20 nA

Range Keithley A changed to 200 nA

Range Keithley A changed to 20 nA

Range Keithley A changed to 200 nA

Range Keithley A changed to 200 pA

Range Keithley A changed to 20 nA

Range Keithley A changed to 200 nA

Range Keithley A changed to 2 uA

Range Keithley A changed to 20 nA

Range Keithley A changed to 200 nA

Range Keithley A changed to 2 uA

Range Keithley A changed to 20 nA

Range Keithley A changed to 200 nA

Range Keithley A changed to 200 pA

Range Keithley A changed to 2 uA

Range Keithley A changed to 20 nA

Range Keithley A changed to 200 nA

Range Keithley A changed to 200 pA

Range Keithley A changed to 20 nA

Range Keithley A changed to 2 uA

Range Keithley A changed to 20 nA

Range Keithley A changed to 200 nA

Range Keithley A changed to 20 nA

Range Keithley A changed to 200 nA

Range Keithley A changed to 200 pA

Range Keithley A changed to 2 uA

Range Keithley A changed to 20 nA

Range Keithley A changed to 200 nA

Range Keithley A changed to 20 nA

Range Keithley A changed to 200 nA

Range Keithley A changed to 200 pA

Range Keithley A changed to 20 nA

Range Keithley A changed to 200 nA

Range Keithley A changed to 20 nA

Range Keithley A changed to 200 nA

Range Keithley A changed to 200 pA

Instrument 3: AMMETER KEITHLEY 6517A C 
Measure type: Current
range type: set range value
range value (ampere):  2 uA
Integration time:  set NPLC value
NPLC value: 10.000
Digital filter count: 2
Vsource: OFF
Output Voltage value: -0.000
Vsource range: 100 V
Trigger source: bus


Range Keithley C changed to 20 uA


Range Keithley C changed to 2 uA


Range Keithley C changed to 200 uA


Range Keithley C changed to 2 uA


Range Keithley C changed to 20 uA


Range Keithley C changed to 200 uA


Range Keithley C changed to 2 uA


Range Keithley C changed to 20 uA


Range Keithley C changed to 2 uA


Range Keithley C changed to 20 uA


Range Keithley C changed to 200 uA


Range Keithley C changed to 2 uA


Range Keithley C changed to 20 uA


Range Keithley C changed to 2 uA


Range Keithley C changed to 20 uA


Range Keithley C changed to 2 uA


________________________________________________________________________________

RelativeTime (msec)	Photon Energy	Var_1	Var_2	INSTR_1_Sample with Bias _(ampere ) 	INSTR_2_Monitor IM_(ampere)  	INSTR_3_Diode A3_(ampere)	I_BPM_sum (Amps)	
________________________________________________________________________________

4.99500000E+3	3.99997616E+1	0.00000000E+0	0.00000000E+0	-4.70000000E-13	4.36500000E-11	1.40250000E-8	8.98069459E-5
1.02620000E+4	4.09997387E+1	0.00000000E+0	0.00000000E+0	-4.40000000E-13	4.99100000E-11	1.58560000E-8	8.95383346E-5
1.44080000E+4	4.19999567E+1	0.00000000E+0	0.00000000E+0	-5.00000000E-13	5.64400000E-11	1.78670000E-8	8.95638513E-5
1.85450000E+4	4.30000372E+1	0.00000000E+0	0.00000000E+0	-3.70000000E-13	6.32200000E-11	2.00870000E-8	8.96338838E-5
2.26710000E+4	4.39999067E+1	0.00000000E+0	0.00000000E+0	-2.70000000E-13	6.99700000E-11	2.24540000E-8	8.96823364E-5
2.68200000E+4	4.49999142E+1	0.00000000E+0	0.00000000E+0	-4.50000000E-13	7.71400000E-11	2.49930000E-8	8.95080315E-5
3.08160000E+4	4.59999650E+1	0.00000000E+0	0.00000000E+0	-2.80000000E-13	8.55200000E-11	2.79530000E-8	8.90493767E-5
3.47970000E+4	4.69999866E+1	0.00000000E+0	0.00000000E+0	-4.60000000E-13	9.47500000E-11	3.11740000E-8	8.93134283E-5
3.88120000E+4	4.80000110E+1	0.00000000E+0	0.00000000E+0	-1.90000000E-13	1.02690000E-10	3.39500000E-8	8.93991189E-5
4.26830000E+4	4.89997604E+1	0.00000000E+0	0.00000000E+0	-4.30000000E-13	1.06650000E-10	3.54720000E-8	8.96679627E-5
4.65530000E+4	4.99999842E+1	0.00000000E+0	0.00000000E+0	-4.30000000E-13	1.04390000E-10	3.47820000E-8	8.92522799E-5
5.04160000E+4	5.10001388E+1	0.00000000E+0	0.00000000E+0	-1.50000000E-13	9.83400000E-11	3.30810000E-8	9.00126833E-5
5.42590000E+4	5.19998629E+1	0.00000000E+0	0.00000000E+0	-6.10000000E-13	1.00250000E-10	3.43480000E-8	8.92946648E-5
5.81250000E+4	5.29999837E+1	0.00000000E+0	0.00000000E+0	-6.00000000E-14	1.14900000E-10	4.01980000E-8	8.97359776E-5
6.18750000E+4	5.39997836E+1	0.00000000E+0	0.00000000E+0	-2.10000000E-13	1.34860000E-10	4.80580000E-8	8.95390677E-5
6.56020000E+4	5.49999130E+1	0.00000000E+0	0.00000000E+0	-6.40000000E-13	1.55500000E-10	5.64100000E-8	8.92319607E-5
6.93240000E+4	5.60001290E+1	0.00000000E+0	0.00000000E+0	-5.30000000E-13	1.76800000E-10	6.52020000E-8	8.97238779E-5
7.30420000E+4	5.69998563E+1	0.00000000E+0	0.00000000E+0	-2.80000000E-13	1.99120000E-10	7.45830000E-8	8.96836149E-5
7.67710000E+4	5.79999099E+1	0.00000000E+0	0.00000000E+0	-3.60000000E-13	2.23270000E-10	8.48480000E-8	8.95559745E-5
8.04070000E+4	5.89996635E+1	0.00000000E+0	0.00000000E+0	-4.00000000E-13	2.50730000E-10	9.68550000E-8	8.92172562E-5
8.40080000E+4	6.00001720E+1	0.00000000E+0	0.00000000E+0	-6.00000000E-13	2.80770000E-10	1.10093000E-7	8.93067705E-5
8.75910000E+4	6.10000729E+1	0.00000000E+0	0.00000000E+0	-3.00000000E-13	3.11580000E-10	1.23888000E-7	8.92493921E-5
9.12250000E+4	6.19998361E+1	0.00000000E+0	0.00000000E+0	-4.60000000E-13	3.42390000E-10	1.37769000E-7	8.91814308E-5
9.48030000E+4	6.29999726E+1	0.00000000E+0	0.00000000E+0	-4.70000000E-13	3.71680000E-10	1.51294000E-7	8.94428330E-5
9.83870000E+4	6.40001187E+1	0.00000000E+0	0.00000000E+0	-2.40000000E-13	3.97530000E-10	1.63633000E-7	8.95440059E-5
1.01843000E+5	6.49993804E+1	0.00000000E+0	0.00000000E+0	-5.70000000E-13	4.18750000E-10	1.74297000E-7	8.89555680E-5
1.05362000E+5	6.60001287E+1	0.00000000E+0	0.00000000E+0	-4.50000000E-13	4.34220000E-10	1.82761000E-7	8.91807484E-5
1.08785000E+5	6.69996614E+1	0.00000000E+0	0.00000000E+0	-4.30000000E-13	4.45310000E-10	1.89605000E-7	8.92375576E-5
1.12264000E+5	6.80003252E+1	0.00000000E+0	0.00000000E+0	-3.70000000E-13	4.59520000E-10	1.98146000E-7	8.94437509E-5
1.15724000E+5	6.90000001E+1	0.00000000E+0	0.00000000E+0	-3.70000000E-13	4.83650000E-10	2.11437000E-7	8.92455803E-5
1.19239000E+5	6.99996235E+1	0.00000000E+0	0.00000000E+0	-3.30000000E-13	5.17000000E-10	2.29057000E-7	8.94179391E-5
1.22713000E+5	7.10003318E+1	0.00000000E+0	0.00000000E+0	-2.70000000E-13	5.43830000E-10	2.43411000E-7	8.93530237E-5
1.26153000E+5	7.19998175E+1	0.00000000E+0	0.00000000E+0	-4.10000000E-13	4.52810000E-10	2.05020000E-7	8.90877025E-5
1.38083000E+5	7.00005723E+1	0.00000000E+0	0.00000000E+0	-5.50000000E-13	2.44290000E-10	1.07965000E-7	8.92296480E-5
1.42285000E+5	7.09992392E+1	0.00000000E+0	0.00000000E+0	-4.30000000E-13	2.62930000E-10	1.17363000E-7	8.92443078E-5
1.45717000E+5	7.19999196E+1	0.00000000E+0	0.00000000E+0	-4.70000000E-13	2.24790000E-10	1.01515000E-7	8.92783152E-5
1.49165000E+5	7.30001115E+1	0.00000000E+0	0.00000000E+0	-4.00000000E-13	2.90000000E-10	1.33609000E-7	8.92421471E-5
1.52470000E+5	7.39995533E+1	0.00000000E+0	0.00000000E+0	-5.60000000E-13	3.30090000E-10	1.54351000E-7	8.91845392E-5
1.55824000E+5	7.49999081E+1	0.00000000E+0	0.00000000E+0	-1.20000000E-13	3.33940000E-10	1.57527000E-7	8.96236944E-5
1.59135000E+5	7.60002395E+1	0.00000000E+0	0.00000000E+0	-1.90000000E-13	3.81510000E-10	1.83210000E-7	8.93474715E-5
1.62449000E+5	7.70001504E+1	0.00000000E+0	0.00000000E+0	-3.60000000E-13	4.28300000E-10	2.08142000E-7	8.91731607E-5
1.65762000E+5	7.79998590E+1	0.00000000E+0	0.00000000E+0	-2.90000000E-13	4.65280000E-10	2.28751000E-7	8.91388403E-5
1.69059000E+5	7.90000333E+1	0.00000000E+0	0.00000000E+0	-7.20000000E-13	5.05800000E-10	2.51734000E-7	8.93616097E-5
1.72393000E+5	7.99998243E+1	0.00000000E+0	0.00000000E+0	-6.40000000E-13	5.47270000E-10	2.75370000E-7	8.91646015E-5
1.75757000E+5	8.09997681E+1	0.00000000E+0	0.00000000E+0	-4.50000000E-13	5.87710000E-10	2.98854000E-7	8.91462104E-5
1.79105000E+5	8.20002405E+1	0.00000000E+0	0.00000000E+0	-4.10000000E-13	6.27170000E-10	3.22334000E-7	8.93252926E-5
1.82339000E+5	8.29992575E+1	0.00000000E+0	0.00000000E+0	-2.60000000E-13	6.72930000E-10	3.49505000E-7	8.94765305E-5
1.85522000E+5	8.39998298E+1	0.00000000E+0	0.00000000E+0	-1.70000000E-13	7.24940000E-10	3.80343000E-7	8.93407243E-5
1.88711000E+5	8.50006102E+1	0.00000000E+0	0.00000000E+0	-4.60000000E-13	7.78600000E-10	4.12334000E-7	8.90161740E-5
1.91899000E+5	8.60000127E+1	0.00000000E+0	0.00000000E+0	-4.80000000E-13	8.34250000E-10	4.45808000E-7	8.92327057E-5
1.95086000E+5	8.69996239E+1	0.00000000E+0	0.00000000E+0	-2.00000000E-13	8.94070000E-10	4.81759000E-7	8.92318057E-5
1.99018000E+5	8.80001377E+1	0.00000000E+0	0.00000000E+0	-6.30000000E-13	9.53540000E-10	5.17813000E-7	8.88443278E-5
2.02220000E+5	8.90002187E+1	0.00000000E+0	0.00000000E+0	-1.20000000E-13	1.01558000E-9	5.55418000E-7	8.93905538E-5
2.05444000E+5	8.99998405E+1	0.00000000E+0	0.00000000E+0	-6.50000000E-13	1.09036000E-9	6.00786000E-7	8.94669312E-5
2.08690000E+5	9.09996292E+1	0.00000000E+0	0.00000000E+0	-3.30000000E-13	1.17325000E-9	6.50935000E-7	8.92550038E-5
2.11890000E+5	9.20001929E+1	0.00000000E+0	0.00000000E+0	-3.40000000E-13	1.25343000E-9	6.99778000E-7	8.89520632E-5
2.15077000E+5	9.29999900E+1	0.00000000E+0	0.00000000E+0	-5.00000000E-13	1.33356000E-9	7.49064000E-7	8.92589646E-5
2.18297000E+5	9.40001606E+1	0.00000000E+0	0.00000000E+0	-1.30000000E-13	1.42621000E-9	8.05589000E-7	8.91670751E-5
2.21405000E+5	9.49996646E+1	0.00000000E+0	0.00000000E+0	-4.20000000E-13	1.51785000E-9	8.61693000E-7	8.94269603E-5
2.24467000E+5	9.59994003E+1	0.00000000E+0	0.00000000E+0	-3.80000000E-13	1.59973000E-9	9.12180000E-7	8.91113358E-5
2.27562000E+5	9.70007438E+1	0.00000000E+0	0.00000000E+0	-2.30000000E-13	1.67838000E-9	9.61085000E-7	8.91852724E-5
2.30687000E+5	9.79999318E+1	0.00000000E+0	0.00000000E+0	-3.40000000E-13	1.75887000E-9	1.01105000E-6	8.96167385E-5
2.33796000E+5	9.89995990E+1	0.00000000E+0	0.00000000E+0	-6.30000000E-13	1.83180000E-9	1.05668400E-6	8.95233350E-5
2.36862000E+5	9.99999835E+1	0.00000000E+0	0.00000000E+0	-5.50000000E-13	1.88458000E-9	1.09063200E-6	8.93207001E-5
2.39920000E+5	1.00999681E+2	0.00000000E+0	0.00000000E+0	-2.80000000E-13	1.83396000E-9	1.06497300E-6	8.94144433E-5
2.42981000E+5	1.02000088E+2	0.00000000E+0	0.00000000E+0	-4.80000000E-13	3.43100000E-11	2.13900000E-8	8.97387135E-5
2.52905000E+5	9.80008599E+1	0.00000000E+0	0.00000000E+0	-7.00000000E-14	4.65060000E-9	2.68353000E-6	8.96819520E-5
2.56685000E+5	9.89986334E+1	0.00000000E+0	0.00000000E+0	-3.50000000E-13	4.83420000E-9	2.80289000E-6	8.92937707E-5
2.59750000E+5	9.99999835E+1	0.00000000E+0	0.00000000E+0	-4.90000000E-13	4.99840000E-9	2.90929000E-6	8.95245063E-5
2.62856000E+5	1.00999681E+2	0.00000000E+0	0.00000000E+0	-3.60000000E-13	5.14720000E-9	3.00619000E-6	8.96420615E-5
2.65945000E+5	1.01999883E+2	0.00000000E+0	0.00000000E+0	-1.70000000E-13	5.31810000E-9	3.06653000E-6	8.95472246E-5
2.69022000E+5	1.03000229E+2	0.00000000E+0	0.00000000E+0	-7.60000000E-13	5.52670000E-9	3.13852000E-6	8.96601277E-5
2.72122000E+5	1.03999714E+2	0.00000000E+0	0.00000000E+0	-3.20000000E-13	5.74340000E-9	3.27834000E-6	8.93723147E-5
2.75216000E+5	1.04999881E+2	0.00000000E+0	0.00000000E+0	-3.00000000E-13	5.96510000E-9	3.42102000E-6	8.93693911E-5
2.78290000E+5	1.06000206E+2	0.00000000E+0	0.00000000E+0	-2.30000000E-13	6.21230000E-9	3.60143000E-6	8.94513118E-5
2.81352000E+5	1.06999691E+2	0.00000000E+0	0.00000000E+0	-3.30000000E-13	6.49370000E-9	3.73012000E-6	8.96681475E-5
2.84450000E+5	1.08000044E+2	0.00000000E+0	0.00000000E+0	-3.20000000E-13	6.78760000E-9	3.81522000E-6	8.95208913E-5
2.87392000E+5	1.08999609E+2	0.00000000E+0	0.00000000E+0	-1.00000000E-13	7.03660000E-9	3.94090000E-6	8.91622501E-5
2.90493000E+5	1.10000440E+2	0.00000000E+0	0.00000000E+0	-3.20000000E-13	7.31960000E-9	3.99877000E-6	8.95251172E-5
2.93428000E+5	1.10999909E+2	0.00000000E+0	0.00000000E+0	-8.60000000E-13	7.54980000E-9	4.19574000E-6	8.94344287E-5
2.96345000E+5	1.11998917E+2	0.00000000E+0	0.00000000E+0	-5.10000000E-13	7.77220000E-9	4.40507000E-6	8.96099346E-5
2.99342000E+5	1.12999462E+2	0.00000000E+0	0.00000000E+0	-1.70000000E-13	8.00080000E-9	4.54234000E-6	8.95221340E-5
3.02291000E+5	1.14000885E+2	0.00000000E+0	0.00000000E+0	-3.50000000E-13	8.21980000E-9	4.66127000E-6	8.92527269E-5
3.05231000E+5	1.14999624E+2	0.00000000E+0	0.00000000E+0	-4.40000000E-13	8.42250000E-9	4.77142000E-6	8.92060356E-5
3.08182000E+5	1.16000901E+2	0.00000000E+0	0.00000000E+0	-4.70000000E-13	8.61540000E-9	4.86239000E-6	8.93568443E-5
3.11104000E+5	1.17000072E+2	0.00000000E+0	0.00000000E+0	-1.70000000E-13	8.79190000E-9	4.93961000E-6	8.91008960E-5
3.14054000E+5	1.17999334E+2	0.00000000E+0	0.00000000E+0	-3.60000000E-13	8.93110000E-9	5.02000000E-6	8.88492362E-5
3.17007000E+5	1.18999870E+2	0.00000000E+0	0.00000000E+0	-2.80000000E-13	9.02130000E-9	5.09122000E-6	8.96760243E-5
3.19968000E+5	1.19999940E+2	0.00000000E+0	0.00000000E+0	-4.00000000E-13	9.07250000E-9	5.14312000E-6	8.91408937E-5
3.22904000E+5	1.21000226E+2	0.00000000E+0	0.00000000E+0	-5.90000000E-13	9.10060000E-9	5.17632000E-6	8.93897342E-5
3.25842000E+5	1.21999142E+2	0.00000000E+0	0.00000000E+0	-5.90000000E-13	9.11480000E-9	5.19281000E-6	8.92584639E-5
3.28771000E+5	1.23000376E+2	0.00000000E+0	0.00000000E+0	-1.70000000E-13	9.11130000E-9	5.19023000E-6	8.96783787E-5
3.31690000E+5	1.23999998E+2	0.00000000E+0	0.00000000E+0	-6.00000000E-14	9.08710000E-9	5.16742000E-6	8.90593903E-5
3.34632000E+5	1.24999681E+2	0.00000000E+0	0.00000000E+0	-4.80000000E-13	9.04620000E-9	5.12910000E-6	8.93674361E-5
3.37567000E+5	1.25999656E+2	0.00000000E+0	0.00000000E+0	-2.60000000E-13	8.98910000E-9	5.07784000E-6	8.96177697E-5
3.40488000E+5	1.26999231E+2	0.00000000E+0	0.00000000E+0	-3.10000000E-13	8.91160000E-9	5.01404000E-6	8.94028860E-5
3.43441000E+5	1.28000262E+2	0.00000000E+0	0.00000000E+0	1.00000000E-14	8.81090000E-9	4.93941000E-6	8.92988073E-5
3.46351000E+5	1.28999817E+2	0.00000000E+0	0.00000000E+0	-3.50000000E-13	8.69030000E-9	4.85762000E-6	8.93748897E-5
3.49155000E+5	1.29999452E+2	0.00000000E+0	0.00000000E+0	-2.80000000E-13	8.55240000E-9	4.77072000E-6	8.95543175E-5
3.51956000E+5	1.30998806E+2	0.00000000E+0	0.00000000E+0	-1.20000000E-13	8.39490000E-9	4.67687000E-6	8.94211727E-5
3.54762000E+5	1.32000610E+2	0.00000000E+0	0.00000000E+0	-3.30000000E-13	8.21530000E-9	4.57463000E-6	8.91953157E-5
3.58412000E+5	1.33000741E+2	0.00000000E+0	0.00000000E+0	-2.90000000E-13	8.01300000E-9	4.46359000E-6	8.94427138E-5
3.61254000E+5	1.33998111E+2	0.00000000E+0	0.00000000E+0	-3.40000000E-13	7.79000000E-9	4.34422000E-6	8.92675625E-5
3.64050000E+5	1.35000856E+2	0.00000000E+0	0.00000000E+0	-4.00000000E-14	7.54870000E-9	4.21656000E-6	8.92851876E-5
3.66818000E+5	1.36000861E+2	0.00000000E+0	0.00000000E+0	-4.10000000E-13	7.29590000E-9	4.08421000E-6	8.91721057E-5
3.69629000E+5	1.36998775E+2	0.00000000E+0	0.00000000E+0	-3.00000000E-14	7.03560000E-9	3.94935000E-6	8.92486291E-5
3.72445000E+5	1.38001294E+2	0.00000000E+0	0.00000000E+0	-1.00000000E-14	6.76650000E-9	3.81071000E-6	8.91585754E-5
3.75222000E+5	1.38999585E+2	0.00000000E+0	0.00000000E+0	-2.70000000E-13	6.48920000E-9	3.66728000E-6	8.93268125E-5
3.78063000E+5	1.39999276E+2	0.00000000E+0	0.00000000E+0	-4.50000000E-13	6.19620000E-9	3.51343000E-6	8.94299703E-5
3.80849000E+5	1.40999738E+2	0.00000000E+0	0.00000000E+0	-3.70000000E-13	5.88160000E-9	3.34534000E-6	8.88792621E-5
3.83672000E+5	1.42000297E+2	0.00000000E+0	0.00000000E+0	-4.50000000E-13	5.55010000E-9	3.16563000E-6	8.94157665E-5
3.86457000E+5	1.43000649E+2	0.00000000E+0	0.00000000E+0	-3.40000000E-13	5.19960000E-9	2.97382000E-6	8.89630454E-5
3.89231000E+5	1.43999257E+2	0.00000000E+0	0.00000000E+0	-5.20000000E-13	4.84220000E-9	2.77841000E-6	8.92416733E-5
3.92046000E+5	1.45000724E+2	0.00000000E+0	0.00000000E+0	-6.00000000E-13	4.47630000E-9	2.57584000E-6	8.94118565E-5
3.94860000E+5	1.46001082E+2	0.00000000E+0	0.00000000E+0	-5.80000000E-13	4.11380000E-9	2.37269000E-6	8.94351947E-5
3.97648000E+5	1.46998344E+2	0.00000000E+0	0.00000000E+0	-7.20000000E-13	3.76440000E-9	2.17491000E-6	8.91606318E-5
4.00460000E+5	1.48000219E+2	0.00000000E+0	0.00000000E+0	-4.40000000E-13	3.43090000E-9	1.98467000E-6	8.92812984E-5
4.03236000E+5	1.48999681E+2	0.00000000E+0	0.00000000E+0	-2.10000000E-13	3.11930000E-9	1.80654000E-6	8.88011561E-5
4.06049000E+5	1.49998963E+2	0.00000000E+0	0.00000000E+0	-3.30000000E-13	2.83290000E-9	1.64237000E-6	8.95267742E-5
4.09504000E+5	1.50974716E+2	0.00000000E+0	0.00000000E+0	-5.00000000E-13	2.53350000E-9	1.47118000E-6	8.91595291E-5
4.12961000E+5	1.52019268E+2	0.00000000E+0	0.00000000E+0	-4.90000000E-13	2.35470000E-9	1.36942000E-6	8.87920098E-5
4.16447000E+5	1.53003404E+2	0.00000000E+0	0.00000000E+0	-5.80000000E-13	2.17580000E-9	1.26735000E-6	8.91040312E-5
4.19912000E+5	1.54004484E+2	0.00000000E+0	0.00000000E+0	-3.80000000E-13	2.00180000E-9	1.16772000E-6	8.96318155E-5
4.23374000E+5	1.54998656E+2	0.00000000E+0	0.00000000E+0	-3.00000000E-13	1.84410000E-9	1.07680000E-6	8.91983496E-5
4.26853000E+5	1.55998816E+2	0.00000000E+0	0.00000000E+0	-4.60000000E-13	1.71310000E-9	1.00065000E-6	8.91570168E-5
4.30334000E+5	1.56998832E+2	0.00000000E+0	0.00000000E+0	6.00000000E-14	1.59420000E-9	9.31290000E-7	8.92296421E-5
4.33815000E+5	1.57996647E+2	0.00000000E+0	0.00000000E+0	-2.00000000E-13	1.48940000E-9	8.70190000E-7	8.91447531E-5
4.37259000E+5	1.59001377E+2	0.00000000E+0	0.00000000E+0	-1.40000000E-13	1.39190000E-9	8.12910000E-7	8.89794456E-5
4.40746000E+5	1.59994043E+2	0.00000000E+0	0.00000000E+0	-1.90000000E-13	1.30590000E-9	7.61090000E-7	8.88727264E-5
4.44210000E+5	1.60994545E+2	0.00000000E+0	0.00000000E+0	-4.00000000E-13	1.24100000E-9	7.21250000E-7	8.92905342E-5
4.47665000E+5	1.62001338E+2	0.00000000E+0	0.00000000E+0	-5.30000000E-13	1.17940000E-9	6.83040000E-7	8.93634366E-5
4.51137000E+5	1.63005421E+2	0.00000000E+0	0.00000000E+0	-1.50000000E-13	1.10560000E-9	6.38510000E-7	8.91497122E-5
4.54637000E+5	1.64002457E+2	0.00000000E+0	0.00000000E+0	-2.70000000E-13	1.02470000E-9	5.94990000E-7	8.92079907E-5
4.58172000E+5	1.65003891E+2	0.00000000E+0	0.00000000E+0	0.00000000E+0	9.38800000E-10	5.47440000E-7	8.93309402E-5
4.61650000E+5	1.66003671E+2	0.00000000E+0	0.00000000E+0	-1.80000000E-13	8.53400000E-10	4.97700000E-7	8.93166500E-5
4.65137000E+5	1.66997159E+2	0.00000000E+0	0.00000000E+0	-2.20000000E-13	7.81100000E-10	4.55100000E-7	8.93439221E-5
4.68671000E+5	1.67998457E+2	0.00000000E+0	0.00000000E+0	-7.20000000E-13	7.22000000E-10	4.20040000E-7	8.95001250E-5
4.72168000E+5	1.68998982E+2	0.00000000E+0	0.00000000E+0	-3.80000000E-13	6.72600000E-10	3.90550000E-7	8.92000633E-5
4.75643000E+5	1.69998149E+2	0.00000000E+0	0.00000000E+0	-3.70000000E-13	6.29500000E-10	3.64900000E-7	8.96454739E-5
4.79104000E+5	1.70992453E+2	0.00000000E+0	0.00000000E+0	-5.10000000E-13	5.96400000E-10	3.45320000E-7	8.95006167E-5
4.82604000E+5	1.71995722E+2	0.00000000E+0	0.00000000E+0	-2.20000000E-13	5.72500000E-10	3.31470000E-7	8.91957181E-5
4.86048000E+5	1.73006234E+2	0.00000000E+0	0.00000000E+0	-2.80000000E-13	5.46800000E-10	3.16380000E-7	8.96082091E-5
4.89504000E+5	1.74001870E+2	0.00000000E+0	0.00000000E+0	-5.10000000E-13	5.17700000E-10	2.99290000E-7	8.96693098E-5
4.92984000E+5	1.75004363E+2	0.00000000E+0	0.00000000E+0	-1.50000000E-13	4.87000000E-10	2.81100000E-7	8.88525294E-5
4.96486000E+5	1.76002811E+2	0.00000000E+0	0.00000000E+0	-2.70000000E-13	4.56200000E-10	2.63100000E-7	8.94700693E-5
4.99988000E+5	1.76999525E+2	0.00000000E+0	0.00000000E+0	-1.30000000E-13	4.29500000E-10	2.47340000E-7	8.96642226E-5
5.03481000E+5	1.77998837E+2	0.00000000E+0	0.00000000E+0	-5.90000000E-13	4.08200000E-10	2.34960000E-7	8.92874586E-5
5.06937000E+5	1.78998076E+2	0.00000000E+0	0.00000000E+0	-6.00000000E-13	3.92000000E-10	2.25500000E-7	8.94913482E-5
5.10411000E+5	1.79997483E+2	0.00000000E+0	0.00000000E+0	-3.50000000E-13	3.78700000E-10	2.17880000E-7	8.96168816E-5
5.13913000E+5	1.80995728E+2	0.00000000E+0	0.00000000E+0	-3.80000000E-13	3.68500000E-10	2.11890000E-7	8.95523029E-5
5.17391000E+5	1.81991372E+2	0.00000000E+0	0.00000000E+0	-3.30000000E-13	3.62800000E-10	2.08730000E-7	8.95318466E-5
5.21744000E+5	1.83002761E+2	0.00000000E+0	0.00000000E+0	-3.40000000E-13	3.57800000E-10	2.05900000E-7	8.94776093E-5
5.25222000E+5	1.84007037E+2	0.00000000E+0	0.00000000E+0	-4.10000000E-13	3.50800000E-10	2.01910000E-7	8.91546415E-5
5.28704000E+5	1.85002990E+2	0.00000000E+0	0.00000000E+0	-4.60000000E-13	3.42800000E-10	1.97390000E-7	8.96072077E-5
5.32166000E+5	1.86003086E+2	0.00000000E+0	0.00000000E+0	-3.80000000E-13	3.34700000E-10	1.92670000E-7	8.93901335E-5
5.35644000E+5	1.87003626E+2	0.00000000E+0	0.00000000E+0	-4.80000000E-13	3.27800000E-10	1.88720000E-7	8.95817714E-5
5.39111000E+5	1.87999053E+2	0.00000000E+0	0.00000000E+0	-2.70000000E-13	3.22500000E-10	1.85630000E-7	8.95366775E-5
5.42584000E+5	1.88992712E+2	0.00000000E+0	0.00000000E+0	-6.80000000E-13	3.19000000E-10	1.83730000E-7	8.95145106E-5
5.46055000E+5	1.90000738E+2	0.00000000E+0	0.00000000E+0	-3.20000000E-13	3.16500000E-10	1.82270000E-7	8.94106972E-5
5.49524000E+5	1.90998239E+2	0.00000000E+0	0.00000000E+0	-8.30000000E-13	3.15500000E-10	1.81930000E-7	8.93139707E-5
5.52991000E+5	1.91994799E+2	0.00000000E+0	0.00000000E+0	-2.50000000E-13	3.15700000E-10	1.82100000E-7	8.94401627E-5
5.56460000E+5	1.92995717E+2	0.00000000E+0	0.00000000E+0	-6.30000000E-13	3.17300000E-10	1.83200000E-7	8.90889274E-5
5.59934000E+5	1.94005614E+2	0.00000000E+0	0.00000000E+0	-5.10000000E-13	3.18000000E-10	1.83650000E-7	8.92489271E-5
5.63397000E+5	1.95000028E+2	0.00000000E+0	0.00000000E+0	-5.00000000E-13	3.17400000E-10	1.83410000E-7	8.90843885E-5
5.66853000E+5	1.96005971E+2	0.00000000E+0	0.00000000E+0	-2.90000000E-13	3.15700000E-10	1.82550000E-7	8.91998189E-5
5.70313000E+5	1.97005828E+2	0.00000000E+0	0.00000000E+0	-4.70000000E-13	3.13400000E-10	1.81370000E-7	8.92865526E-5
5.73775000E+5	1.97997252E+2	0.00000000E+0	0.00000000E+0	-3.20000000E-13	3.11000000E-10	1.80300000E-7	8.94120383E-5
5.77223000E+5	1.98997728E+2	0.00000000E+0	0.00000000E+0	-3.30000000E-13	3.09500000E-10	1.79440000E-7	8.94445496E-5
5.80709000E+5	1.99995313E+2	0.00000000E+0	0.00000000E+0	-4.00000000E-13	3.08400000E-10	1.79230000E-7	8.93435406E-5
5.84151000E+5	2.00997876E+2	0.00000000E+0	0.00000000E+0	-4.30000000E-13	3.07900000E-10	1.79170000E-7	8.95304071E-5
5.87634000E+5	2.01996242E+2	0.00000000E+0	0.00000000E+0	-2.10000000E-13	3.08700000E-10	1.79970000E-7	8.93914240E-5
5.91129000E+5	2.02992135E+2	0.00000000E+0	0.00000000E+0	-5.00000000E-14	3.11000000E-10	1.81740000E-7	8.93533754E-5
5.94615000E+5	2.04003635E+2	0.00000000E+0	0.00000000E+0	-2.20000000E-13	3.13400000E-10	1.83380000E-7	8.95534384E-5
5.98138000E+5	2.05005038E+2	0.00000000E+0	0.00000000E+0	-4.10000000E-13	3.15000000E-10	1.84720000E-7	8.93368917E-5
6.01583000E+5	2.06008068E+2	0.00000000E+0	0.00000000E+0	-4.20000000E-13	3.15900000E-10	1.85620000E-7	8.92451512E-5
6.05099000E+5	2.06999678E+2	0.00000000E+0	0.00000000E+0	-4.40000000E-13	3.16900000E-10	1.86550000E-7	8.92470466E-5
6.08564000E+5	2.08004198E+2	0.00000000E+0	0.00000000E+0	-5.90000000E-13	3.17600000E-10	1.87510000E-7	8.93895196E-5
6.12045000E+5	2.08993525E+2	0.00000000E+0	0.00000000E+0	-1.20000000E-13	3.18800000E-10	1.88710000E-7	8.93394577E-5
6.15500000E+5	2.10000560E+2	0.00000000E+0	0.00000000E+0	-3.00000000E-13	3.20300000E-10	1.90040000E-7	8.91603725E-5
6.18994000E+5	2.10995115E+2	0.00000000E+0	0.00000000E+0	-7.30000000E-13	3.21600000E-10	1.91310000E-7	8.96947908E-5
6.22480000E+5	2.11999023E+2	0.00000000E+0	0.00000000E+0	-3.50000000E-13	3.23200000E-10	1.92660000E-7	8.91153442E-5
6.25938000E+5	2.12997050E+2	0.00000000E+0	0.00000000E+0	-4.40000000E-13	3.25300000E-10	1.94310000E-7	8.92912315E-5
6.29482000E+5	2.13993583E+2	0.00000000E+0	0.00000000E+0	-3.80000000E-13	3.28000000E-10	1.96340000E-7	8.92863410E-5
6.32969000E+5	2.15006985E+2	0.00000000E+0	0.00000000E+0	-4.70000000E-13	3.29300000E-10	1.97540000E-7	8.90074717E-5
6.36535000E+5	2.16007154E+2	0.00000000E+0	0.00000000E+0	-4.80000000E-13	3.28600000E-10	1.97600000E-7	8.93162089E-5
6.40039000E+5	2.17003422E+2	0.00000000E+0	0.00000000E+0	1.10000000E-13	3.25800000E-10	1.96400000E-7	8.93164682E-5
6.43529000E+5	2.17998501E+2	0.00000000E+0	0.00000000E+0	0.00000000E+0	3.22400000E-10	1.95000000E-7	8.90564131E-5
6.47027000E+5	2.19000685E+2	0.00000000E+0	0.00000000E+0	-6.90000000E-13	3.18900000E-10	1.93260000E-7	8.91488956E-5
6.50516000E+5	2.19998816E+2	0.00000000E+0	0.00000000E+0	-4.10000000E-13	3.16000000E-10	1.91950000E-7	8.91208576E-5
6.53981000E+5	2.20997281E+2	0.00000000E+0	0.00000000E+0	-2.90000000E-13	3.13900000E-10	1.91240000E-7	8.93676805E-5
6.57470000E+5	2.21995438E+2	0.00000000E+0	0.00000000E+0	-5.60000000E-13	3.12300000E-10	1.90690000E-7	8.93741982E-5
6.60965000E+5	2.22994985E+2	0.00000000E+0	0.00000000E+0	-4.40000000E-13	3.12200000E-10	1.91020000E-7	8.91236024E-5
6.64428000E+5	2.23992037E+2	0.00000000E+0	0.00000000E+0	-3.10000000E-13	3.13800000E-10	1.92430000E-7	8.93707263E-5
6.67907000E+5	2.25006633E+2	0.00000000E+0	0.00000000E+0	-6.30000000E-13	3.14900000E-10	1.93540000E-7	8.90863406E-5
6.71366000E+5	2.26005136E+2	0.00000000E+0	0.00000000E+0	-3.80000000E-13	3.14800000E-10	1.93820000E-7	8.93174129E-5
6.74816000E+5	2.27003955E+2	0.00000000E+0	0.00000000E+0	-3.10000000E-13	3.14000000E-10	1.94000000E-7	8.88404118E-5
6.78326000E+5	2.28006726E+2	0.00000000E+0	0.00000000E+0	-4.70000000E-13	3.13300000E-10	1.94210000E-7	8.91693400E-5
6.81812000E+5	2.28997559E+2	0.00000000E+0	0.00000000E+0	-4.10000000E-13	3.13000000E-10	1.94660000E-7	8.92506914E-5
6.85293000E+5	2.29996033E+2	0.00000000E+0	0.00000000E+0	-3.40000000E-13	3.13900000E-10	1.95660000E-7	8.90646325E-5
6.88784000E+5	2.30997955E+2	0.00000000E+0	0.00000000E+0	-3.30000000E-13	3.15400000E-10	1.97290000E-7	8.90448825E-5
6.92249000E+5	2.31996989E+2	0.00000000E+0	0.00000000E+0	-2.80000000E-13	3.18400000E-10	1.99750000E-7	8.91699599E-5
6.96505000E+5	2.32996862E+2	0.00000000E+0	0.00000000E+0	-3.20000000E-13	3.22900000E-10	2.03110000E-7	8.96510440E-5
6.99967000E+5	2.33991588E+2	0.00000000E+0	0.00000000E+0	-0.00000000E+0	3.28300000E-10	2.06890000E-7	8.91382502E-5
7.03471000E+5	2.35003483E+2	0.00000000E+0	0.00000000E+0	-3.10000000E-13	3.33700000E-10	2.10690000E-7	8.90966253E-5
7.06964000E+5	2.36003762E+2	0.00000000E+0	0.00000000E+0	-6.00000000E-14	3.38700000E-10	2.14630000E-7	8.93045383E-5
7.10474000E+5	2.37007269E+2	0.00000000E+0	0.00000000E+0	-6.30000000E-13	3.43500000E-10	2.18450000E-7	8.95478832E-5
7.13970000E+5	2.38006685E+2	0.00000000E+0	0.00000000E+0	-4.60000000E-13	3.47900000E-10	2.22040000E-7	8.97301960E-5
7.17431000E+5	2.38999141E+2	0.00000000E+0	0.00000000E+0	-1.10000000E-13	3.52300000E-10	2.25640000E-7	8.95505952E-5
7.20915000E+5	2.39999237E+2	0.00000000E+0	0.00000000E+0	-2.70000000E-13	3.57400000E-10	2.29580000E-7	8.92094093E-5
7.24411000E+5	2.40997624E+2	0.00000000E+0	0.00000000E+0	-1.90000000E-13	3.63100000E-10	2.33940000E-7	8.97316175E-5
7.27898000E+5	2.41991795E+2	0.00000000E+0	0.00000000E+0	-1.70000000E-13	3.69100000E-10	2.38500000E-7	8.98742753E-5
7.31353000E+5	2.42997916E+2	0.00000000E+0	0.00000000E+0	-5.00000000E-13	3.75800000E-10	2.43450000E-7	8.93808352E-5
7.34842000E+5	2.43993818E+2	0.00000000E+0	0.00000000E+0	-5.00000000E-13	3.83300000E-10	2.48770000E-7	8.88759898E-5
7.38367000E+5	2.44997534E+2	0.00000000E+0	0.00000000E+0	-1.20000000E-13	3.91100000E-10	2.54390000E-7	8.92506557E-5
7.41845000E+5	2.46005667E+2	0.00000000E+0	0.00000000E+0	-7.00000000E-14	3.98600000E-10	2.59730000E-7	8.90876459E-5
7.45329000E+5	2.47003915E+2	0.00000000E+0	0.00000000E+0	-6.10000000E-13	4.05300000E-10	2.64660000E-7	8.96229702E-5
7.48835000E+5	2.48006160E+2	0.00000000E+0	0.00000000E+0	-2.20000000E-13	4.11400000E-10	2.69210000E-7	8.94629287E-5
7.52296000E+5	2.48998616E+2	0.00000000E+0	0.00000000E+0	-4.50000000E-13	4.16900000E-10	2.73410000E-7	8.93281238E-5
7.55785000E+5	2.49998383E+2	0.00000000E+0	0.00000000E+0	-7.30000000E-13	4.22400000E-10	2.77480000E-7	8.95380485E-5
7.58691000E+5	2.50995155E+2	0.00000000E+0	0.00000000E+0	9.00000000E-14	4.21500000E-10	2.77090000E-7	8.95183104E-5
7.61629000E+5	2.51996546E+2	0.00000000E+0	0.00000000E+0	-4.70000000E-13	4.20200000E-10	2.76440000E-7	8.96754849E-5
7.64501000E+5	2.52997636E+2	0.00000000E+0	0.00000000E+0	5.00000000E-14	4.18800000E-10	2.75690000E-7	8.93406229E-5
7.67407000E+5	2.54005191E+2	0.00000000E+0	0.00000000E+0	-9.00000000E-14	4.17300000E-10	2.74690000E-7	8.90859233E-5
7.70330000E+5	2.54997937E+2	0.00000000E+0	0.00000000E+0	-1.00000000E-14	4.15700000E-10	2.73560000E-7	8.92551737E-5
7.73237000E+5	2.56001003E+2	0.00000000E+0	0.00000000E+0	-5.60000000E-13	4.14100000E-10	2.72280000E-7	8.93460678E-5
7.76159000E+5	2.56997300E+2	0.00000000E+0	0.00000000E+0	-4.10000000E-13	4.12100000E-10	2.70850000E-7	8.94253092E-5
7.79088000E+5	2.57999659E+2	0.00000000E+0	0.00000000E+0	-8.00000000E-14	4.10500000E-10	2.69350000E-7	8.92981665E-5
7.81994000E+5	2.59001053E+2	0.00000000E+0	0.00000000E+0	-2.80000000E-13	4.08800000E-10	2.67810000E-7	8.92949747E-5
7.84869000E+5	2.59997951E+2	0.00000000E+0	0.00000000E+0	-3.60000000E-13	4.07200000E-10	2.66220000E-7	8.91555684E-5
7.94389000E+5	2.55004269E+2	0.00000000E+0	0.00000000E+0	2.01600000E-13	8.79400000E-12	6.77600000E-9	8.94713181E-5
7.99342000E+5	2.55995746E+2	0.00000000E+0	0.00000000E+0	1.65500000E-13	9.16950000E-12	6.81800000E-9	8.93712478E-5
8.03551000E+5	2.56999666E+2	0.00000000E+0	0.00000000E+0	1.41400000E-13	9.36730000E-12	6.85000000E-9	8.92407077E-5
8.07776000E+5	2.58000566E+2	0.00000000E+0	0.00000000E+0	9.94000000E-14	9.53150000E-12	6.88400000E-9	8.94028055E-5
8.11971000E+5	2.59000140E+2	0.00000000E+0	0.00000000E+0	2.01900000E-13	9.67420000E-12	6.92400000E-9	8.91659843E-5
8.16201000E+5	2.60000707E+2	0.00000000E+0	0.00000000E+0	1.76000000E-13	9.80600000E-12	6.92900000E-9	8.97221106E-5
8.20373000E+5	2.60999558E+2	0.00000000E+0	0.00000000E+0	1.48000000E-13	9.93940000E-12	6.99300000E-9	8.91238110E-5
8.24567000E+5	2.62001360E+2	0.00000000E+0	0.00000000E+0	1.78800000E-13	1.00610000E-11	7.03400000E-9	8.95210313E-5
8.28762000E+5	2.62995684E+2	0.00000000E+0	0.00000000E+0	2.07100000E-13	1.02009000E-11	7.08400000E-9	8.93543022E-5
8.32945000E+5	2.64002702E+2	0.00000000E+0	0.00000000E+0	1.97600000E-13	1.03510000E-11	7.12500000E-9	8.91898411E-5
8.37121000E+5	2.64998406E+2	0.00000000E+0	0.00000000E+0	1.51700000E-13	1.04963000E-11	7.19000000E-9	8.90294032E-5
8.41298000E+5	2.65995514E+2	0.00000000E+0	0.00000000E+0	2.20000000E-13	1.06623000E-11	7.25200000E-9	8.95680922E-5
8.45481000E+5	2.67002764E+2	0.00000000E+0	0.00000000E+0	1.20200000E-13	1.08361000E-11	7.31900000E-9	8.92777162E-5
8.49647000E+5	2.67999487E+2	0.00000000E+0	0.00000000E+0	7.91000000E-14	1.10188000E-11	7.38600000E-9	8.90688645E-5
8.53833000E+5	2.68998927E+2	0.00000000E+0	0.00000000E+0	2.13400000E-13	1.12107000E-11	7.45400000E-9	8.89236169E-5
8.58010000E+5	2.70000701E+2	0.00000000E+0	0.00000000E+0	1.27700000E-13	1.14088000E-11	7.52400000E-9	8.93181401E-5
8.62164000E+5	2.70998755E+2	0.00000000E+0	0.00000000E+0	1.93500000E-13	1.16129000E-11	7.56000000E-9	8.91943501E-5
8.66333000E+5	2.71998163E+2	0.00000000E+0	0.00000000E+0	1.93600000E-13	1.18132000E-11	7.63400000E-9	8.90583860E-5
8.70485000E+5	2.73000636E+2	0.00000000E+0	0.00000000E+0	1.25400000E-13	1.20059000E-11	7.67200000E-9	8.91117351E-5
8.74688000E+5	2.73999517E+2	0.00000000E+0	0.00000000E+0	2.37400000E-13	1.21917000E-11	7.67900000E-9	8.89639841E-5
8.78880000E+5	2.75004781E+2	0.00000000E+0	0.00000000E+0	1.49000000E-13	1.23569000E-11	7.69100000E-9	8.92902183E-5
8.83060000E+5	2.75998699E+2	0.00000000E+0	0.00000000E+0	1.31100000E-13	1.25042000E-11	7.61800000E-9	8.93926608E-5
8.88042000E+5	2.77002603E+2	0.00000000E+0	0.00000000E+0	1.65500000E-13	1.26353000E-11	7.55300000E-9	8.89473395E-5
8.92259000E+5	2.78005044E+2	0.00000000E+0	0.00000000E+0	1.83900000E-13	1.27410000E-11	7.46800000E-9	8.88034181E-5
8.96424000E+5	2.78996624E+2	0.00000000E+0	0.00000000E+0	2.10200000E-13	1.28426000E-11	7.35200000E-9	8.88777749E-5
9.00598000E+5	2.80003631E+2	0.00000000E+0	0.00000000E+0	1.39000000E-13	1.29370000E-11	7.19200000E-9	8.91453879E-5
9.04770000E+5	2.80994743E+2	0.00000000E+0	0.00000000E+0	2.02100000E-13	1.30285000E-11	7.02600000E-9	8.90466409E-5
9.09003000E+5	2.82001479E+2	0.00000000E+0	0.00000000E+0	1.26600000E-13	1.31212000E-11	6.79000000E-9	8.92557429E-5
9.13201000E+5	2.82999693E+2	0.00000000E+0	0.00000000E+0	2.01100000E-13	1.32449000E-11	6.58600000E-9	8.94575226E-5
9.17404000E+5	2.83997968E+2	0.00000000E+0	0.00000000E+0	1.80200000E-13	1.33752000E-11	6.32600000E-9	8.99961936E-5
9.21592000E+5	2.84999602E+2	0.00000000E+0	0.00000000E+0	1.89700000E-13	1.34847000E-11	5.98100000E-9	8.95132857E-5
9.25741000E+5	2.85997317E+2	0.00000000E+0	0.00000000E+0	1.50600000E-13	1.35544000E-11	5.58000000E-9	8.93061595E-5
9.29901000E+5	2.86999803E+2	0.00000000E+0	0.00000000E+0	1.99900000E-13	1.35643000E-11	5.07300000E-9	8.96374988E-5
9.34077000E+5	2.88001771E+2	0.00000000E+0	0.00000000E+0	1.99800000E-13	1.34647000E-11	4.40900000E-9	8.97193271E-5
9.38259000E+5	2.89000967E+2	0.00000000E+0	0.00000000E+0	1.58300000E-13	1.33245000E-11	3.55400000E-9	8.92881768E-5
9.42412000E+5	2.89998800E+2	0.00000000E+0	0.00000000E+0	1.90800000E-13	1.49463000E-11	2.11700000E-9	8.93738794E-5
9.46560000E+5	2.90998110E+2	0.00000000E+0	0.00000000E+0	1.47500000E-13	2.14187000E-11	5.78000000E-10	8.93871235E-5
9.50785000E+5	2.91998173E+2	0.00000000E+0	0.00000000E+0	1.45000000E-13	3.12557000E-11	4.37000000E-10	8.93174129E-5
9.54949000E+5	2.92993615E+2	0.00000000E+0	0.00000000E+0	1.66200000E-13	3.31559000E-11	5.90000000E-10	8.94600647E-5
9.59132000E+5	2.93999260E+2	0.00000000E+0	0.00000000E+0	1.51300000E-13	4.07259000E-11	5.01000000E-10	8.94001710E-5
9.63288000E+5	2.95001610E+2	0.00000000E+0	0.00000000E+0	1.89300000E-13	4.54205000E-11	4.54000000E-10	8.94808727E-5
9.67410000E+5	2.96001134E+2	0.00000000E+0	0.00000000E+0	1.52400000E-13	4.56187000E-11	3.94000000E-10	8.94547390E-5
9.71558000E+5	2.96999314E+2	0.00000000E+0	0.00000000E+0	1.98500000E-13	4.39378000E-11	3.87000000E-10	8.92952489E-5
9.75712000E+5	2.97996932E+2	0.00000000E+0	0.00000000E+0	2.11900000E-13	4.17181000E-11	4.58000000E-10	8.93982964E-5
9.79900000E+5	2.98997994E+2	0.00000000E+0	0.00000000E+0	1.67300000E-13	4.19745000E-11	4.78000000E-10	8.95037221E-5
9.84066000E+5	2.99997989E+2	0.00000000E+0	0.00000000E+0	1.44700000E-13	4.43805000E-11	5.38000000E-10	8.95770627E-5
9.88240000E+5	3.00997727E+2	0.00000000E+0	0.00000000E+0	1.63500000E-13	4.66762000E-11	6.06000000E-10	8.93002110E-5
9.92408000E+5	3.01998917E+2	0.00000000E+0	0.00000000E+0	1.76100000E-13	4.87688000E-11	6.66000000E-10	8.98212957E-5
9.96602000E+5	3.03005103E+2	0.00000000E+0	0.00000000E+0	1.72900000E-13	5.04062000E-11	6.76000000E-10	8.95918983E-5
1.00076400E+6	3.03994877E+2	0.00000000E+0	0.00000000E+0	2.09500000E-13	5.18195000E-11	7.72000000E-10	8.93272387E-5
1.00495100E+6	3.05003683E+2	0.00000000E+0	0.00000000E+0	2.01000000E-13	5.30561000E-11	7.64000000E-10	8.92535495E-5
1.00915400E+6	3.05996139E+2	0.00000000E+0	0.00000000E+0	1.46900000E-13	5.45014000E-11	8.64000000E-10	8.94461053E-5
1.01337400E+6	3.07001111E+2	0.00000000E+0	0.00000000E+0	1.48200000E-13	5.57877000E-11	9.23000000E-10	8.94798803E-5
1.01759000E+6	3.07997931E+2	0.00000000E+0	0.00000000E+0	1.74800000E-13	5.69976000E-11	9.55000000E-10	8.96112072E-5
1.02177200E+6	3.09005525E+2	0.00000000E+0	0.00000000E+0	1.32600000E-13	5.84228000E-11	1.05200000E-9	8.92547356E-5
1.02591700E+6	3.09998526E+2	0.00000000E+0	0.00000000E+0	1.85000000E-13	5.96528000E-11	1.07700000E-9	8.90848832E-5
1.03006300E+6	3.11002126E+2	0.00000000E+0	0.00000000E+0	1.48000000E-13	6.08717000E-11	1.22600000E-9	8.91888963E-5
1.03429200E+6	3.11994557E+2	0.00000000E+0	0.00000000E+0	1.48200000E-13	6.21810000E-11	1.30900000E-9	8.93765049E-5
1.03848100E+6	3.13000419E+2	0.00000000E+0	0.00000000E+0	1.28800000E-13	6.36292000E-11	1.44000000E-9	8.92525750E-5
1.04269100E+6	3.14003700E+2	0.00000000E+0	0.00000000E+0	1.88400000E-13	6.51913000E-11	1.60400000E-9	8.88345020E-5
1.04688900E+6	3.14998698E+2	0.00000000E+0	0.00000000E+0	1.94900000E-13	6.68432000E-11	1.74400000E-9	8.93986809E-5
1.05106400E+6	3.16001178E+2	0.00000000E+0	0.00000000E+0	1.83900000E-13	6.87023000E-11	1.93700000E-9	8.94144969E-5
1.05522300E+6	3.16999458E+2	0.00000000E+0	0.00000000E+0	1.50700000E-13	7.05910000E-11	2.02500000E-9	8.93154221E-5
1.05940600E+6	3.18000961E+2	0.00000000E+0	0.00000000E+0	2.08700000E-13	7.23099000E-11	2.25900000E-9	8.94094186E-5
1.06360800E+6	3.19004209E+2	0.00000000E+0	0.00000000E+0	2.16700000E-13	7.36959000E-11	2.36200000E-9	8.94075858E-5
1.06779900E+6	3.19998883E+2	0.00000000E+0	0.00000000E+0	1.27700000E-13	7.47543000E-11	2.47900000E-9	8.89999347E-5
1.08367200E+6	2.55015606E+2	0.00000000E+0	0.00000000E+0	1.29900000E-13	9.90000000E+37	2.72043000E-7	8.95535635E-5
1.08894300E+6	2.55987130E+2	0.00000000E+0	0.00000000E+0	2.33000000E-13	9.90000000E+37	2.70799000E-7	8.92418998E-5
1.09317700E+6	2.56999326E+2	0.00000000E+0	0.00000000E+0	1.86600000E-13	9.90000000E+37	2.69293000E-7	8.92540412E-5
1.09735700E+6	2.57997846E+2	0.00000000E+0	0.00000000E+0	1.44300000E-13	9.90000000E+37	2.67708000E-7	8.92583536E-5
1.10155300E+6	2.59002992E+2	0.00000000E+0	0.00000000E+0	1.99400000E-13	9.90000000E+37	2.66215000E-7	8.95792233E-5
