G:\BEAR_storage\User_Experiments\20220317_arneodo\Tmp\file(1)_tmp_0058.txt
Ring Energy (GeV): 2
Lifetime (hours): 0
Scan beginning: 3/19/2022	8:41:14 PM
Ring current (mA): 309.37
Source position: x (mm): -0.003 x' (mrad): 0.001 y (mm): 0.003 y' (mrad): 0.004
Scan end: 3/19/2022	8:44:47 PM
Ring current (mA): 309.51
Source position: x (mm): -0.004 x' (mrad): 0.001 y (mm): 0.003 y' (mrad): 0.004

SCAN TYPE: PHOTON ENERGY VS VAR_1 VS VAR_2

FILE INFO: FILE INFO:

SCAN PARAMETERS
waiting time (ms): 1000
Number of scans: 1
Current scan number: 1
DARK OFF 
PREDARK OFF 

SCAN PARAMETERS
Regions configuration: 
number of regions: 1
Mirror grating scan: on
Timed acquisition: off
Region 1:
Initial energy (eV): 40.000000
Final energy (eV): 50.000000
Delta energy (eV): 0.100000
Deviation angle choice: Degrees: 
Deviation angle (°): NaN
filter Ag 0.6 um
G1200 channel
range keithley B 200 pA
range keithley C 200 pA
range keithley A 200 pA
Var_1: PsiC 0.000000
Var_2: PhiM0.000000
Bias CEM (V): 0.000000
Bias Keithley B (V): 0.000000
Name region: 

BEAR MONOCHROMATOR CONFIGURATION: 
Current Grating Position:     -218103.10
Current Mirror Position: 2556.9
Current Grating: G1200
P2 phiz position:  0.0000
Mono axis position: 25.0000
Current Photon Energy (eV): 46.600
Current Deviation Angle: 155.000
Vertical Exit Slits (um): 100.000
Exit slit y axis position: 1.3625
Horizontal Exit Slits (um):  889.156
Exit slit z axis position: 1.9229
Mitutoyo position (mm): 

Dose on sample (mJ/cm^2): NaN

ENERGY CALIBRATION:
offset grating G1200: yes
Delta 0 order G1200:  -800.0
offset grating G1800: not
Delta 0 order G1800:  0.0
offset grating GNIM: not
Delta 0 order GNIM:  0.0
ZERO ORDER POSITIONS:
Grating G1200: Mirror position:  4938.0
Grating position: -105355.0
Grating G1800: 
Mirror position:  4938.0
Grating position: -106345.0
Grating GNIM: 
Mirror position:  10000.0
Grating position: 227300.0

Initial filter: Ag filter 0.6 um

EXPERIMENTAL CHAMBER CONFIGURATION: 
PsiC (deg):   -0.000186
Phi Analyzer (degrees): 89.992308
Theta Manipulator (degrees): -44.000040
Theta Analyzer (degrees): -135.001450
PhiM (degrees): -0.004103
XM (mm): 0.000350
YM (mm): 19.932987
ZM (mm): (Warning: for kinetic energy scans, 
this parameter is given in the scan settings) 
-6.601438
TiltM (°): 0.000138

ELECTRON ANALYZER CONFIGURATION: 
Current Kinetik energy (eV): 35.0
Mode: DE = COST
Pass Energy (eV):  50.000
CEM: ON
Bias Front-Back CEM (V): 3499.561
Bias Back-Collector CEM (V): 100.874
Bias Retard-Front CEM: 100.087COIL VALUES
Ix (amps):2.820
Iy (amps): 6.789
Iz (amps): 37.337

POLARIZATION SELECTOR CONFIGURATION:
Psi1 (rad): -0.001665535
Psi2 (rad): 0.001417093
Z min position (mm): 46.599650
DZ position (mm): 18.599100
Zmin 0 (mm): 66.500000
DZ0 (mm): 53.000000

BEAM SELECTOR CONFIGURATION:
Zmin position (mm): NaN
DZ position (mm): NaN
Y+ position (mm): NaN
Y- position (mm): NaN

CHANNEL ELECTRON MULTIPLIER CONFIGURATION:
CEM configured: OFF
Bias CEM: 0.000000

FLUORESCENCE DETECTOR CONFIGURATION:
Not configured

LUMINESCENCE MONOCHROMATOR CONFIGURATION:
Optical fiber position (mm): 0.000000
Optical fiber Switch inside: OFF
Optical fiber Switch outside: ON
Monochromator wavelength (A): 0.000000
Limit Switches: ON

I0 MONITOR PARAMETERS:
I0 detector position(mm): -0.000000E+0
Lower switch: OFF
Upper switch: OFF
Valve status:open

PRESSURE PARAMETERS:
Monitor chamber pressure (mbar): 8.736e-10
Experimental chamber pressure -ION GAUGE-(mbar): 0.000000E+0

XMCD PARAMETERS:
Xmcd OFF
Xmcd Direction -
Xmcd current (A): 0.000000

Gated scan off

Instrument 1: AMMETER KEITHLEY 6517A B
Measure type: Current
range type: set range value
range value (ampere):  200 pA
Integration time:  set NPLC value
NPLC value: 10.000
Digital filter count: 2
SAMPLE BIAS (V): -30.000
Vsource: ON
Output Voltage value: 30.000
Vsource range: 1000 V

Range Keithley B changed to 20 nA

Range Keithley B changed to 200 pA

Range Keithley B changed to 20 nA

Range Keithley B changed to 200 pA

Range Keithley B changed to 20 nA

Range Keithley B changed to 200 pA

Range Keithley B changed to 20 nA

Range Keithley B changed to 200 nA

Range Keithley B changed to 200 pA

Range Keithley B changed to 20 nA

Range Keithley B changed to 200 pA

Range Keithley B changed to 20 nA

Range Keithley B changed to 200 pA

Range Keithley B changed to 20 nA

Range Keithley B changed to 200 pA

Range Keithley B changed to 20 nA

Range Keithley B changed to 200 pA

Range Keithley B changed to 20 nA

Range Keithley B changed to 200 pA

Range Keithley B changed to 20 nA

Range Keithley B changed to 200 pA

Range Keithley B changed to 20 nA

Range Keithley B changed to 200 pA

Range Keithley B changed to 20 nA

Range Keithley B changed to 200 pA

Range Keithley B changed to 20 nA

Range Keithley B changed to 200 pA

Range Keithley B changed to 20 nA

Range Keithley B changed to 200 pA

Range Keithley B changed to 20 nA

Range Keithley B changed to 200 pA

Range Keithley B changed to 20 nA

Range Keithley B changed to 200 pA

Range Keithley B changed to 20 nA

Range Keithley B changed to 200 pA

Range Keithley B changed to 20 nA

Range Keithley B changed to 200 pA

Range Keithley B changed to 20 nA

Range Keithley B changed to 200 pA

Range Keithley B changed to 20 nA

Keithley B Bias (V) changed to: 0.000000

Range Keithley B changed to 200 pA

Instrument 2: AMMETER KEITHLEY 6517A A
Measure type: Current
range type: set range value
range value (ampere):  200 nA
Integration time:  set NPLC value
NPLC value: 10.000
Digital filter count: 2
Vsource: OFF
Output Voltage value: -0.000
Vsource range: 100 V
Trigger source: bus

Range Keithley A changed to 20 nA

Range Keithley A changed to 200 nA

Range Keithley A changed to 200 pA

Range Keithley A changed to 20 nA

Range Keithley A changed to 200 pA

Range Keithley A changed to 20 nA

Range Keithley A changed to 200 nA

Range Keithley A changed to 200 pA

Range Keithley A changed to 20 nA

Range Keithley A changed to 200 pA

Range Keithley A changed to 20 nA

Range Keithley A changed to 200 nA

Range Keithley A changed to 200 pA

Range Keithley A changed to 20 nA

Range Keithley A changed to 200 pA

Range Keithley A changed to 20 nA

Range Keithley A changed to 200 pA

Range Keithley A changed to 20 nA

Range Keithley A changed to 200 pA

Range Keithley A changed to 20 nA

Range Keithley A changed to 200 pA

Range Keithley A changed to 20 nA

Range Keithley A changed to 200 nA

Range Keithley A changed to 200 pA

Range Keithley A changed to 20 nA

Range Keithley A changed to 200 pA

Range Keithley A changed to 20 nA

Range Keithley A changed to 200 nA

Range Keithley A changed to 200 pA

Range Keithley A changed to 20 nA

Range Keithley A changed to 200 nA

Range Keithley A changed to 200 pA

Range Keithley A changed to 20 nA

Range Keithley A changed to 200 pA

Range Keithley A changed to 20 nA

Range Keithley A changed to 200 pA

Range Keithley A changed to 20 nA

Range Keithley A changed to 200 nA

Range Keithley A changed to 200 pA

Range Keithley A changed to 20 nA

Range Keithley A changed to 200 pA

Range Keithley A changed to 20 nA

Range Keithley A changed to 200 nA

Range Keithley A changed to 20 nA

Range Keithley A changed to 200 nA

Range Keithley A changed to 200 pA

Range Keithley A changed to 20 nA

Range Keithley A changed to 200 nA

Range Keithley A changed to 2 uA

Range Keithley A changed to 20 nA

Range Keithley A changed to 200 nA

Range Keithley A changed to 2 uA

Range Keithley A changed to 20 nA

Range Keithley A changed to 200 nA

Range Keithley A changed to 200 pA

Range Keithley A changed to 2 uA

Range Keithley A changed to 20 nA

Range Keithley A changed to 200 nA

Range Keithley A changed to 200 pA

Range Keithley A changed to 20 nA

Range Keithley A changed to 2 uA

Range Keithley A changed to 20 nA

Range Keithley A changed to 200 nA

Range Keithley A changed to 20 nA

Range Keithley A changed to 200 nA

Range Keithley A changed to 200 pA

Range Keithley A changed to 2 uA

Range Keithley A changed to 20 nA

Range Keithley A changed to 200 nA

Range Keithley A changed to 20 nA

Range Keithley A changed to 200 nA

Range Keithley A changed to 200 pA

Range Keithley A changed to 20 nA

Range Keithley A changed to 200 nA

Range Keithley A changed to 20 nA

Range Keithley A changed to 200 nA

Range Keithley A changed to 200 pA

Range Keithley A changed to 20 nA

Range Keithley A changed to 200 nA

Range Keithley A changed to 200 pA

Range Keithley A changed to 20 nA

Range Keithley A changed to 200 pA

Range Keithley A changed to 20 nA

Range Keithley A changed to 200 pA

Range Keithley A changed to 20 nA

Range Keithley A changed to 200 pA

Range Keithley A changed to 20 nA

Range Keithley A changed to 200 pA

Instrument 3: AMMETER KEITHLEY 6517A C 
Measure type: Current
range type: set range value
range value (ampere):  2 uA
Integration time:  set NPLC value
NPLC value: 10.000
Digital filter count: 2
Vsource: OFF
Output Voltage value: -0.000
Vsource range: 100 V
Trigger source: bus


Range Keithley C changed to 20 pA


Range Keithley C changed to 200 pA


________________________________________________________________________________

RelativeTime (msec)	Photon Energy	Var_1	Var_2	INSTR_1_Sample grounded_(ampere ) 	INSTR_2_Monitor IM_(ampere)  	INSTR_3_Diode A3_(ampere)	I_BPM_sum (Amps)	
________________________________________________________________________________

3.08900000E+3	3.99996866E+1	0.00000000E+0	0.00000000E+0	5.94000000E-14	8.10000000E-15	6.80500000E-13	-1.88071154E-6
8.07300000E+3	4.01000080E+1	0.00000000E+0	0.00000000E+0	2.18700000E-13	1.02000000E-14	6.60600000E-13	-1.88059233E-6
1.23140000E+4	4.01999741E+1	0.00000000E+0	0.00000000E+0	4.64000000E-14	7.50000000E-15	6.67800000E-13	-1.86634086E-6
1.66280000E+4	4.02999917E+1	0.00000000E+0	0.00000000E+0	4.53000000E-14	6.00000000E-15	7.07400000E-13	-1.87298082E-6
2.07290000E+4	4.03998651E+1	0.00000000E+0	0.00000000E+0	7.70000000E-15	7.30000000E-15	6.51100000E-13	-1.87006019E-6
2.50340000E+4	4.05001054E+1	0.00000000E+0	0.00000000E+0	1.11600000E-13	5.00000000E-15	6.88500000E-13	-1.88571535E-6
2.90990000E+4	4.05998374E+1	0.00000000E+0	0.00000000E+0	1.18900000E-13	5.60000000E-15	4.68900000E-13	-1.85839854E-6
3.32950000E+4	4.06999965E+1	0.00000000E+0	0.00000000E+0	-5.50000000E-14	6.30000000E-15	2.82060000E-12	-1.87284075E-6
3.76140000E+4	4.08001262E+1	0.00000000E+0	0.00000000E+0	2.63000000E-14	-3.40000000E-15	5.74300000E-13	-1.89546071E-6
4.17560000E+4	4.08999136E+1	0.00000000E+0	0.00000000E+0	7.80000000E-14	9.00000000E-16	6.80200000E-13	-1.89286195E-6
4.59640000E+4	4.09999165E+1	0.00000000E+0	0.00000000E+0	6.63000000E-14	-1.00000000E-16	6.75200000E-13	-1.88252352E-6
5.00560000E+4	4.10999979E+1	0.00000000E+0	0.00000000E+0	-1.57000000E-14	-1.80000000E-15	9.50200000E-13	-1.87830947E-6
5.43440000E+4	4.12001678E+1	0.00000000E+0	0.00000000E+0	-1.49500000E-12	2.00000000E-16	8.35782000E-11	-1.87779389E-6
5.85210000E+4	4.12998309E+1	0.00000000E+0	0.00000000E+0	-3.44520000E-12	6.80000000E-15	-1.32439000E-11	-1.90204703E-6
6.26960000E+4	4.14000542E+1	0.00000000E+0	0.00000000E+0	-2.42300000E-12	-2.10000000E-15	-1.36950000E-11	-1.88539349E-6
6.68250000E+4	4.14999629E+1	0.00000000E+0	0.00000000E+0	-1.65990000E-12	-1.30000000E-15	-1.35253000E-11	-1.89551436E-6
7.10830000E+4	4.16000140E+1	0.00000000E+0	0.00000000E+0	-1.13040000E-12	-3.00000000E-16	-1.36063000E-11	-1.88244306E-6
7.52390000E+4	4.16999662E+1	0.00000000E+0	0.00000000E+0	-9.34800000E-13	-5.00000000E-16	-1.36222000E-11	-1.89892672E-6
7.95970000E+4	4.18000210E+1	0.00000000E+0	0.00000000E+0	-7.05900000E-13	4.50000000E-15	-1.36089000E-11	-1.89737998E-6
8.38330000E+4	4.19000037E+1	0.00000000E+0	0.00000000E+0	-6.09100000E-13	3.00000000E-16	-1.35751000E-11	-1.89362787E-6
8.79360000E+4	4.19998748E+1	0.00000000E+0	0.00000000E+0	-4.32800000E-13	4.40000000E-15	-1.35759000E-11	-1.90707766E-6
9.21060000E+4	4.21000835E+1	0.00000000E+0	0.00000000E+0	-3.31500000E-13	2.00000000E-16	-1.35945000E-11	-1.89488255E-6
9.62170000E+4	4.22000697E+1	0.00000000E+0	0.00000000E+0	-3.43000000E-13	3.00000000E-16	-1.35624000E-11	-1.89034663E-6
1.00388000E+5	4.22999325E+1	0.00000000E+0	0.00000000E+0	-2.95200000E-13	-6.00000000E-16	-1.36879000E-11	-1.90638028E-6
1.04522000E+5	4.24000211E+1	0.00000000E+0	0.00000000E+0	-2.49400000E-13	-9.00000000E-16	-1.36025000E-11	-1.89245366E-6
1.08695000E+5	4.25000149E+1	0.00000000E+0	0.00000000E+0	-2.88700000E-13	0.00000000E+0	-1.35422000E-11	-1.89701937E-6
1.12800000E+5	4.26000167E+1	0.00000000E+0	0.00000000E+0	-2.16100000E-13	-3.60000000E-15	-1.37034000E-11	-1.89211689E-6
1.17144000E+5	4.26999871E+1	0.00000000E+0	0.00000000E+0	-1.67100000E-13	-4.70000000E-15	-1.35890000E-11	-1.91807770E-6
1.21272000E+5	4.27999947E+1	0.00000000E+0	0.00000000E+0	-1.66300000E-13	-2.60000000E-15	-1.36442000E-11	-1.88980423E-6
1.25405000E+5	4.28999766E+1	0.00000000E+0	0.00000000E+0	-1.98200000E-13	-1.00000000E-16	-1.36067000E-11	-1.89471267E-6
1.29559000E+5	4.29997822E+1	0.00000000E+0	0.00000000E+0	-1.12800000E-13	-6.00000000E-16	-1.35604000E-11	-1.88812934E-6
1.33731000E+5	4.31001150E+1	0.00000000E+0	0.00000000E+0	3.35210000E-12	3.90000000E-15	-5.15734000E-11	-1.91091322E-6
1.37955000E+5	4.31999725E+1	0.00000000E+0	0.00000000E+0	2.74880000E-12	-2.00000000E-15	1.37500000E-13	-1.90478288E-6
1.42088000E+5	4.33001462E+1	0.00000000E+0	0.00000000E+0	1.90140000E-12	3.00000000E-15	3.87800000E-13	-1.93586075E-6
1.46242000E+5	4.33999697E+1	0.00000000E+0	0.00000000E+0	1.42820000E-12	2.80000000E-15	4.52400000E-13	-1.90735184E-6
1.50372000E+5	4.34999554E+1	0.00000000E+0	0.00000000E+0	1.05700000E-12	1.60000000E-15	5.37500000E-13	-1.92671143E-6
1.54515000E+5	4.36000036E+1	0.00000000E+0	0.00000000E+0	7.50400000E-13	-4.10000000E-15	5.49300000E-13	-1.90380834E-6
1.58722000E+5	4.37000239E+1	0.00000000E+0	0.00000000E+0	6.96000000E-13	-1.20000000E-15	5.93400000E-13	-1.91180133E-6
1.62838000E+5	4.37999748E+1	0.00000000E+0	0.00000000E+0	4.97000000E-13	-1.60000000E-15	6.04000000E-13	-1.90897607E-6
1.67007000E+5	4.39000802E+1	0.00000000E+0	0.00000000E+0	4.04700000E-13	1.60000000E-15	6.11000000E-13	-1.92146622E-6
1.71143000E+5	4.39999576E+1	0.00000000E+0	0.00000000E+0	3.81600000E-13	-2.00000000E-15	5.88800000E-13	-1.90916382E-6
1.75270000E+5	4.41000221E+1	0.00000000E+0	0.00000000E+0	3.09700000E-13	-4.80000000E-15	6.41700000E-13	-1.92487859E-6
1.79385000E+5	4.41999654E+1	0.00000000E+0	0.00000000E+0	2.70100000E-13	7.00000000E-16	6.41600000E-13	-1.90422260E-6
1.83570000E+5	4.43000533E+1	0.00000000E+0	0.00000000E+0	3.19300000E-13	-1.90000000E-15	6.48400000E-13	-1.92118012E-6
1.87661000E+5	4.44000906E+1	0.00000000E+0	0.00000000E+0	1.68000000E-13	2.50000000E-15	6.34800000E-13	-1.91305303E-6
1.91788000E+5	4.45000343E+1	0.00000000E+0	0.00000000E+0	1.69700000E-13	2.50000000E-15	6.77900000E-13	-1.91291891E-6
1.95954000E+5	4.45999979E+1	0.00000000E+0	0.00000000E+0	1.23800000E-13	1.10000000E-15	6.43600000E-13	-1.90207683E-6
2.00089000E+5	4.47000965E+1	0.00000000E+0	0.00000000E+0	1.82900000E-13	-2.00000000E-15	6.27900000E-13	-1.92003869E-6
2.04190000E+5	4.47998941E+1	0.00000000E+0	0.00000000E+0	2.30400000E-13	-1.80000000E-15	6.68500000E-13	-1.92311131E-6
2.08292000E+5	4.49000587E+1	0.00000000E+0	0.00000000E+0	8.73000000E-14	1.90000000E-15	6.15800000E-13	-1.92682468E-6
