G:\BEAR_storage\User_Experiments\20210802_arneodo\Bpm\file(1)_bpm_0031.txt
Ring Energy (GeV): 2
Lifetime (hours): 23.962
Scan beginning: 8/6/2021	2:49:35 PM
Ring current (mA): 216.55
Source position: x (mm): 0.004 x' (mrad): -0.001 y (mm): 0.007 y' (mrad): 0.003
Scan end: 8/6/2021	2:58:47 PM
Ring current (mA): 215.19
Source position: x (mm): 0.002 x' (mrad): 0 y (mm): 0.006 y' (mrad): 0.002

SCAN TYPE: PHOTON ENERGY VS VAR_1 VS VAR_2

FILE INFO: FILE INFO:

SCAN PARAMETERS
waiting time (ms): 0
Number of scans: 1
Current scan number: 1
DARK OFF 
PREDARK OFF 

SCAN PARAMETERS
Regions configuration: 
number of regions: 1
Mirror grating scan: off
Timed acquisition: off
Region 1:
Initial energy (eV): 15.000000
Final energy (eV): 25.000000
Delta energy (eV): 0.100000
Deviation angle choice: Degrees: 
Deviation angle (°): 169.600000
Sn filter
GNIM channel
range keithley B 200 pA
range keithley C 200 pA
range keithley A 200 pA
Var_1: XM-7.000000
Var_2: ThetaM -20.000000
Bias CEM (V): 0.000000
Bias Keithley B (V): -10.000000
Name region: 

BEAR MONOCHROMATOR CONFIGURATION: 
Current Grating Position:     176472.20
Current Mirror Position: 10000.0
Current Grating: GNIM
P2 phiz position:  -0.0099
Mono axis position: 73.5000
Current Photon Energy (eV): 24.100
Current Deviation Angle: 29.905
Vertical Exit Slits (um): 100.000
Exit slit y axis position: 1.3625
Horizontal Exit Slits (um):  890.000
Exit slit z axis position: 1.9250
Mitutoyo position (mm): 

Dose on sample (mJ/cm^2): NaN

ENERGY CALIBRATION:
offset grating G1200: yes
Delta 0 order G1200:  -800.0
offset grating G1800: not
Delta 0 order G1800:  0.0
offset grating GNIM: not
Delta 0 order GNIM:  0.0
ZERO ORDER POSITIONS:
Grating G1200: Mirror position:  4938.0
Grating position: -106855.0
Grating G1800: 
Mirror position:  4938.0
Grating position: -106345.0
Grating GNIM: 
Mirror position:  10000.0
Grating position: 227300.0

Initial filter: Full Beam

EXPERIMENTAL CHAMBER CONFIGURATION: 
PsiC (deg):   -0.003530
Phi Analyzer (degrees): -0.003788
Theta Manipulator (degrees): -20.000000
Theta Analyzer (degrees): -0.000127
PhiM (degrees): 0.001026
XM (mm): -6.999888
YM (mm): 10.989150
ZM (mm): (Warning: for kinetic energy scans, 
this parameter is given in the scan settings) 
-3.000988
TiltM (°): 0.000138

COIL VALUES
Ix (amps):2.820
Iy (amps): 0.000
Iz (amps): 37.530

POLARIZATION SELECTOR CONFIGURATION:
Psi1 (rad): -0.001665535
Psi2 (rad): 0.001417093
Z min position (mm): 46.599650
DZ position (mm): 18.599100
Zmin 0 (mm): 65.700000
DZ0 (mm): 54.000000

BEAM SELECTOR CONFIGURATION:
Zmin position (mm): NaN
DZ position (mm): NaN
Y+ position (mm): NaN
Y- position (mm): NaN

CHANNEL ELECTRON MULTIPLIER CONFIGURATION:
CEM configured: OFF
Bias CEM: 0.000000

FLUORESCENCE DETECTOR CONFIGURATION:
Not configured

LUMINESCENCE MONOCHROMATOR CONFIGURATION:
Optical fiber position (mm): 0.000000
Optical fiber Switch inside: OFF
Optical fiber Switch outside: ON
Monochromator wavelength (A): 0.000000
Limit Switches: ON

I0 MONITOR PARAMETERS:
I0 detector position(mm): NaN
Lower switch: OFF
Upper switch: OFF
Valve status:open

PRESSURE PARAMETERS:
Monitor chamber pressure (mbar): 1.35e-09
Experimental chamber pressure -ION GAUGE-(mbar): 0.000000E+0

XMCD PARAMETERS:
Xmcd OFF
Xmcd Direction -
Xmcd current (A): 0.000000

Gated scan off

Instrument 1: AMMETER KEITHLEY 6517A B
Measure type: Current
range type: set range value
range value (ampere):  200 pA
Integration time:  set NPLC value
NPLC value: 10.000
Digital filter count: 5
SAMPLE BIAS (V): -0.000
Vsource: ON
Output Voltage value: 0.000
Vsource range: 100 V

Keithley B Bias (V) changed to: -10.000000

Range Keithley B changed to 20 nA

Range Keithley B changed to 200 pA

Range Keithley B changed to 20 nA

Range Keithley B changed to 200 pA

Range Keithley B changed to 20 nA

Range Keithley B changed to 200 pA

Range Keithley B changed to 20 nA

Range Keithley B changed to 200 pA

Range Keithley B changed to 20 nA

Range Keithley B changed to 200 pA

Range Keithley B changed to 20 nA

Range Keithley B changed to 200 pA

Range Keithley B changed to 20 nA

Range Keithley B changed to 200 pA

Range Keithley B changed to 20 nA

Range Keithley B changed to 200 pA

Range Keithley B changed to 20 nA

Range Keithley B changed to 200 pA

Range Keithley B changed to 20 nA

Range Keithley B changed to 200 pA

Range Keithley B changed to 20 nA

Range Keithley B changed to 200 pA

Range Keithley B changed to 20 nA

Range Keithley B changed to 200 pA

Range Keithley B changed to 20 nA

Range Keithley B changed to 200 pA

Range Keithley B changed to 20 nA

Range Keithley B changed to 200 pA

Range Keithley B changed to 20 nA

Range Keithley B changed to 200 pA

Range Keithley B changed to 20 nA

Range Keithley B changed to 200 pA

Range Keithley B changed to 20 nA

Range Keithley B changed to 200 pA

Range Keithley B changed to 20 nA

Range Keithley B changed to 200 pA

Range Keithley B changed to 20 nA

Range Keithley B changed to 200 pA

Range Keithley B changed to 20 nA

Range Keithley B changed to 200 pA

Range Keithley B changed to 20 nA

Range Keithley B changed to 200 pA

Range Keithley B changed to 20 nA

Range Keithley B changed to 200 pA

Range Keithley B changed to 20 nA

Range Keithley B changed to 200 pA

Range Keithley B changed to 20 nA

Range Keithley B changed to 200 pA

Range Keithley B changed to 20 nA

Range Keithley B changed to 200 pA

Range Keithley B changed to 20 nA

Range Keithley B changed to 200 pA

Range Keithley B changed to 20 nA

Range Keithley B changed to 200 pA

Range Keithley B changed to 20 nA

Range Keithley B changed to 200 pA

Range Keithley B changed to 20 nA

Range Keithley B changed to 200 pA

Range Keithley B changed to 20 nA

Range Keithley B changed to 200 nA

Keithley B Bias (V) changed to: -10.000000

Range Keithley B changed to 200 pA

Instrument 2: AMMETER KEITHLEY 6517A A
Measure type: Current
range type: set range value
range value (ampere):  200 pA
Integration time:  set NPLC value
NPLC value: 10.000
Digital filter count: 2
Vsource: OFF
Output Voltage value: -0.000
Vsource range: 100 V
Trigger source: bus

Range Keithley A changed to 20 nA

Range Keithley A changed to 200 pA

Range Keithley A changed to 20 nA

Range Keithley A changed to 200 pA

Range Keithley A changed to 20 nA

Range Keithley A changed to 200 pA

Range Keithley A changed to 20 nA

Range Keithley A changed to 200 pA

Range Keithley A changed to 20 nA

Range Keithley A changed to 200 pA

Range Keithley A changed to 20 nA

Range Keithley A changed to 200 pA

Range Keithley A changed to 20 nA

Range Keithley A changed to 200 pA

Range Keithley A changed to 20 nA

Range Keithley A changed to 200 pA

Range Keithley A changed to 20 nA

Range Keithley A changed to 200 pA

Range Keithley A changed to 20 nA

Range Keithley A changed to 200 pA

Range Keithley A changed to 20 nA

Range Keithley A changed to 200 pA

Range Keithley A changed to 20 nA

Range Keithley A changed to 200 pA

Range Keithley A changed to 20 nA

Range Keithley A changed to 200 pA

Range Keithley A changed to 20 nA

Range Keithley A changed to 200 pA

Range Keithley A changed to 20 nA

Range Keithley A changed to 200 pA

Range Keithley A changed to 20 nA

Range Keithley A changed to 200 pA

Range Keithley A changed to 20 nA

Range Keithley A changed to 200 pA

Range Keithley A changed to 20 nA

Range Keithley A changed to 200 pA

Range Keithley A changed to 20 nA

Range Keithley A changed to 200 pA

Range Keithley A changed to 20 nA

Range Keithley A changed to 200 pA

Range Keithley A changed to 20 nA

Range Keithley A changed to 200 pA

Range Keithley A changed to 20 nA

Range Keithley A changed to 200 pA

Range Keithley A changed to 20 nA

Range Keithley A changed to 200 pA

Range Keithley A changed to 20 nA

Range Keithley A changed to 200 pA

Range Keithley A changed to 20 nA

Range Keithley A changed to 200 pA

Range Keithley A changed to 20 nA

Range Keithley A changed to 200 pA

Range Keithley A changed to 20 nA

Range Keithley A changed to 200 pA

Range Keithley A changed to 20 nA

Range Keithley A changed to 200 pA

Range Keithley A changed to 20 nA

Range Keithley A changed to 200 pA

Range Keithley A changed to 20 nA

Range Keithley A changed to 200 pA

Range Keithley A changed to 20 nA

Range Keithley A changed to 200 pA

Range Keithley A changed to 20 nA

Range Keithley A changed to 200 pA

Range Keithley A changed to 20 nA

Range Keithley A changed to 200 pA

Range Keithley A changed to 20 nA

Range Keithley A changed to 200 pA

Range Keithley A changed to 20 nA

Range Keithley A changed to 200 pA

Range Keithley A changed to 20 nA

Range Keithley A changed to 200 pA

Range Keithley A changed to 20 nA

Range Keithley A changed to 200 pA

Range Keithley A changed to 20 nA

Range Keithley A changed to 200 pA

Range Keithley A changed to 20 nA

Range Keithley A changed to 200 pA

Range Keithley A changed to 20 nA

Range Keithley A changed to 200 pA

Range Keithley A changed to 20 nA

Range Keithley A changed to 200 pA

Range Keithley A changed to 20 nA

Range Keithley A changed to 200 pA

Range Keithley A changed to 20 nA

Range Keithley A changed to 200 pA

Range Keithley A changed to 20 nA

Range Keithley A changed to 200 pA

Range Keithley A changed to 20 nA

Range Keithley A changed to 200 pA

Range Keithley A changed to 20 nA

Range Keithley A changed to 200 pA

Range Keithley A changed to 20 nA

Range Keithley A changed to 200 pA

Range Keithley A changed to 20 nA

Range Keithley A changed to 200 pA

Range Keithley A changed to 20 nA

Range Keithley A changed to 200 pA

Instrument 3: None


________________________________________________________________________________

RelativeTime (msec)	Photon Energy	Var_1	Var_2	a) I_1 (Amps)	b) I_2 (Amps)	d) I_3 (Amps)	c) I_4 (Amps)	I_BPM_sum (Amps)	Delta Z(mm)	
________________________________________________________________________________

8.43300000E+3	1.49999103E+1	-7.00000000E+0	-2.00000000E+1	1.15708395E-5	6.45732063E-6	2.36408083E-5	1.94362962E-5	6.11052646E-5	3.26766121E-4
1.55480000E+4	1.51000184E+1	-7.00000000E+0	-2.00000000E+1	1.15342541E-5	6.47907334E-6	2.36581175E-5	1.97064036E-5	6.13778486E-5	3.28223789E-4
2.10320000E+4	1.51999045E+1	-7.00000000E+0	-2.00000000E+1	1.15011378E-5	6.49893957E-6	2.36766992E-5	1.96607762E-5	6.13375528E-5	3.28008304E-4
2.67310000E+4	1.53000306E+1	-7.00000000E+0	-2.00000000E+1	1.15937634E-5	6.47208768E-6	2.36931442E-5	1.96332031E-5	6.13921984E-5	3.28300526E-4
3.22340000E+4	1.54000504E+1	-7.00000000E+0	-2.00000000E+1	1.15767880E-5	6.47001344E-6	2.36808775E-5	1.95794546E-5	6.13071336E-5	3.27845634E-4
3.78910000E+4	1.54998944E+1	-7.00000000E+0	-2.00000000E+1	1.16352810E-5	6.46937269E-6	2.36100851E-5	1.94016688E-5	6.11164076E-5	3.26825709E-4
4.35860000E+4	1.56001665E+1	-7.00000000E+0	-2.00000000E+1	1.16250797E-5	6.46919387E-6	2.36136763E-5	1.95919865E-5	6.12999363E-5	3.27807146E-4
4.90480000E+4	1.56998912E+1	-7.00000000E+0	-2.00000000E+1	1.15502878E-5	6.44779282E-6	2.36123739E-5	1.94973879E-5	6.11078425E-5	3.26779906E-4
5.47360000E+4	1.58000218E+1	-7.00000000E+0	-2.00000000E+1	1.15884258E-5	6.48148137E-6	2.36667095E-5	1.95425802E-5	6.12791969E-5	3.27696240E-4
6.04240000E+4	1.58999918E+1	-7.00000000E+0	-2.00000000E+1	1.14371254E-5	6.47444802E-6	2.36509381E-5	1.95957326E-5	6.11582442E-5	3.27049434E-4
6.59140000E+4	1.60000424E+1	-7.00000000E+0	-2.00000000E+1	1.14982082E-5	6.47813755E-6	2.36000804E-5	1.95325428E-5	6.11089690E-5	3.26785930E-4
7.16040000E+4	1.61000256E+1	-7.00000000E+0	-2.00000000E+1	1.15487679E-5	6.45643550E-6	2.36636965E-5	1.94580191E-5	6.11269189E-5	3.26881919E-4
7.70600000E+4	1.61999581E+1	-7.00000000E+0	-2.00000000E+1	1.15174933E-5	6.44762295E-6	2.36096410E-5	1.94938623E-5	6.10686196E-5	3.26570158E-4
8.27380000E+4	1.63000316E+1	-7.00000000E+0	-2.00000000E+1	1.15536256E-5	6.46258968E-6	2.36405133E-5	1.95628100E-5	6.12195386E-5	3.27377212E-4
8.83370000E+4	1.63999425E+1	-7.00000000E+0	-2.00000000E+1	1.15403070E-5	6.48638385E-6	2.35950647E-5	1.95533210E-5	6.11750765E-5	3.27139447E-4
9.37830000E+4	1.65001736E+1	-7.00000000E+0	-2.00000000E+1	1.15934565E-5	6.48447650E-6	2.36126809E-5	1.96164900E-5	6.13071038E-5	3.27845475E-4
9.94500000E+4	1.65999034E+1	-7.00000000E+0	-2.00000000E+1	1.15146084E-5	6.46196681E-6	2.35408751E-5	1.94482618E-5	6.09657122E-5	3.26019851E-4
1.05147000E+5	1.67000029E+1	-7.00000000E+0	-2.00000000E+1	1.16072728E-5	6.45945149E-6	2.36570476E-5	1.95422434E-5	6.12660153E-5	3.27625750E-4
1.10602000E+5	1.68000254E+1	-7.00000000E+0	-2.00000000E+1	1.15368499E-5	6.44057470E-6	2.36962108E-5	1.94452369E-5	6.11188723E-5	3.26838889E-4
1.16163000E+5	1.68998762E+1	-7.00000000E+0	-2.00000000E+1	1.16240843E-5	6.47251385E-6	2.36157892E-5	1.96026796E-5	6.13150670E-5	3.27888059E-4
1.21527000E+5	1.70000709E+1	-7.00000000E+0	-2.00000000E+1	1.15252360E-5	6.44182938E-6	2.35556243E-5	1.94931739E-5	6.10158635E-5	3.26288040E-4
1.27092000E+5	1.71000270E+1	-7.00000000E+0	-2.00000000E+1	1.15380301E-5	6.47063928E-6	2.36556081E-5	1.95817166E-5	6.12459941E-5	3.27518685E-4
1.32691000E+5	1.71999567E+1	-7.00000000E+0	-2.00000000E+1	1.15629746E-5	6.45046907E-6	2.36578374E-5	1.95328497E-5	6.12041308E-5	3.27294817E-4
1.38041000E+5	1.72999606E+1	-7.00000000E+0	-2.00000000E+1	1.15258201E-5	6.44866007E-6	2.36252306E-5	1.94966131E-5	6.10963239E-5	3.26718309E-4
1.43713000E+5	1.74000704E+1	-7.00000000E+0	-2.00000000E+1	1.15154995E-5	6.45026641E-6	2.36591874E-5	1.94982015E-5	6.11231549E-5	3.26861791E-4
1.49059000E+5	1.74998940E+1	-7.00000000E+0	-2.00000000E+1	1.14343240E-5	6.45642954E-6	2.36694841E-5	1.95538902E-5	6.11141278E-5	3.26813517E-4
1.54710000E+5	1.76001608E+1	-7.00000000E+0	-2.00000000E+1	1.14923849E-5	6.47921043E-6	2.36363707E-5	1.94884920E-5	6.10964580E-5	3.26719027E-4
1.60281000E+5	1.76999703E+1	-7.00000000E+0	-2.00000000E+1	1.16330578E-5	6.47978562E-6	2.35223768E-5	1.94816285E-5	6.11168487E-5	3.26828068E-4
1.65593000E+5	1.77999862E+1	-7.00000000E+0	-2.00000000E+1	1.15258856E-5	6.44280093E-6	2.35692231E-5	1.95228421E-5	6.10607518E-5	3.26528085E-4
1.71159000E+5	1.79000130E+1	-7.00000000E+0	-2.00000000E+1	1.15701332E-5	6.47110122E-6	2.36651091E-5	1.95837908E-5	6.12901343E-5	3.27754729E-4
1.76703000E+5	1.79999789E+1	-7.00000000E+0	-2.00000000E+1	1.15266367E-5	6.46021145E-6	2.35037504E-5	1.95166194E-5	6.10072179E-5	3.26241807E-4
1.82057000E+5	1.80999968E+1	-7.00000000E+0	-2.00000000E+1	1.15642651E-5	6.48233372E-6	2.36839531E-5	1.95827329E-5	6.13132848E-5	3.27878528E-4
1.87608000E+5	1.81999414E+1	-7.00000000E+0	-2.00000000E+1	1.15644737E-5	6.41974287E-6	2.37189500E-5	1.95246928E-5	6.12278594E-5	3.27421708E-4
1.92954000E+5	1.82999833E+1	-7.00000000E+0	-2.00000000E+1	1.16002216E-5	6.44698220E-6	2.36250011E-5	1.95815199E-5	6.12537248E-5	3.27560026E-4
1.98511000E+5	1.84000522E+1	-7.00000000E+0	-2.00000000E+1	1.14904864E-5	6.43608051E-6	2.36315606E-5	1.94030695E-5	6.09611971E-5	3.25995707E-4
2.04060000E+5	1.84999909E+1	-7.00000000E+0	-2.00000000E+1	1.14428117E-5	6.47662359E-6	2.36257313E-5	1.95491069E-5	6.10942735E-5	3.26707345E-4
2.09398000E+5	1.86000034E+1	-7.00000000E+0	-2.00000000E+1	1.15711345E-5	6.46950680E-6	2.35724626E-5	1.96382367E-5	6.12513407E-5	3.27547276E-4
2.14988000E+5	1.86999601E+1	-7.00000000E+0	-2.00000000E+1	1.15153714E-5	6.44928592E-6	2.35452591E-5	1.94120281E-5	6.09219445E-5	3.25785799E-4
2.20553000E+5	1.88000150E+1	-7.00000000E+0	-2.00000000E+1	1.15870966E-5	6.45725506E-6	2.36290990E-5	1.95607864E-5	6.12342371E-5	3.27455813E-4
2.25925000E+5	1.88999787E+1	-7.00000000E+0	-2.00000000E+1	1.15515693E-5	6.44878226E-6	2.35815494E-5	1.94964104E-5	6.10783113E-5	3.26621986E-4
2.31505000E+5	1.90000672E+1	-7.00000000E+0	-2.00000000E+1	1.14852979E-5	6.45873326E-6	2.35464780E-5	1.94776618E-5	6.09681709E-5	3.26032999E-4
2.36886000E+5	1.90999991E+1	-7.00000000E+0	-2.00000000E+1	1.15434392E-5	6.46248537E-6	2.35350279E-5	1.95073509E-5	6.10483034E-5	3.26461515E-4
2.42452000E+5	1.92000238E+1	-7.00000000E+0	-2.00000000E+1	1.15216627E-5	6.44180255E-6	2.35037593E-5	1.94333278E-5	6.09005524E-5	3.25671403E-4
2.48004000E+5	1.93000059E+1	-7.00000000E+0	-2.00000000E+1	1.15111484E-5	6.44558149E-6	2.35367356E-5	1.95349717E-5	6.10284371E-5	3.26355279E-4
2.53332000E+5	1.94000198E+1	-7.00000000E+0	-2.00000000E+1	1.15217759E-5	6.45334500E-6	2.36127047E-5	1.95320600E-5	6.11198856E-5	3.26844308E-4
2.58902000E+5	1.94999881E+1	-7.00000000E+0	-2.00000000E+1	1.15572049E-5	6.44605833E-6	2.36427842E-5	1.95283466E-5	6.11743940E-5	3.27135797E-4
2.64473000E+5	1.96000189E+1	-7.00000000E+0	-2.00000000E+1	1.14928140E-5	6.44537585E-6	2.36064820E-5	1.94462680E-5	6.09909399E-5	3.26154759E-4
2.69828000E+5	1.96999396E+1	-7.00000000E+0	-2.00000000E+1	1.15647389E-5	6.42896669E-6	2.34945176E-5	1.94347077E-5	6.09229309E-5	3.25791075E-4
2.75401000E+5	1.98000834E+1	-7.00000000E+0	-2.00000000E+1	1.15654661E-5	6.47455531E-6	2.36587970E-5	1.94977575E-5	6.11965759E-5	3.27254417E-4
2.80733000E+5	1.98999561E+1	-7.00000000E+0	-2.00000000E+1	1.15036591E-5	6.44760209E-6	2.35029070E-5	1.94031083E-5	6.08572764E-5	3.25439981E-4
2.86142000E+5	1.99998609E+1	-7.00000000E+0	-2.00000000E+1	1.15374221E-5	6.46479505E-6	2.35988466E-5	1.95283585E-5	6.11294223E-5	3.26895307E-4
2.93022000E+5	2.01001135E+1	-7.00000000E+0	-2.00000000E+1	1.15625127E-5	6.45141082E-6	2.35180585E-5	1.94595062E-5	6.09914882E-5	3.26157691E-4
2.98258000E+5	2.01999425E+1	-7.00000000E+0	-2.00000000E+1	1.14408805E-5	6.47540468E-6	2.36304460E-5	1.94348865E-5	6.09816177E-5	3.26104907E-4
3.03590000E+5	2.03000610E+1	-7.00000000E+0	-2.00000000E+1	1.14871486E-5	6.47114294E-6	2.36175386E-5	1.93700217E-5	6.09458519E-5	3.25913647E-4
3.08926000E+5	2.04000205E+1	-7.00000000E+0	-2.00000000E+1	1.16274013E-5	6.44391554E-6	2.35072939E-5	1.94572979E-5	6.10359086E-5	3.26395233E-4
3.14141000E+5	2.05000765E+1	-7.00000000E+0	-2.00000000E+1	1.14541216E-5	6.45695704E-6	2.35045044E-5	1.94132470E-5	6.08288301E-5	3.25287862E-4
3.19410000E+5	2.05999745E+1	-7.00000000E+0	-2.00000000E+1	1.15748717E-5	6.48228007E-6	2.36553787E-5	1.95333772E-5	6.12459077E-5	3.27518223E-4
3.24672000E+5	2.06999054E+1	-7.00000000E+0	-2.00000000E+1	1.15200533E-5	6.44404369E-6	2.35628097E-5	1.94728398E-5	6.09997464E-5	3.26201853E-4
3.29870000E+5	2.07999975E+1	-7.00000000E+0	-2.00000000E+1	1.14994510E-5	6.45459371E-6	2.34328507E-5	1.94072776E-5	6.07941730E-5	3.25102529E-4
3.35078000E+5	2.09000629E+1	-7.00000000E+0	-2.00000000E+1	1.14641859E-5	6.44460397E-6	2.35904752E-5	1.94645786E-5	6.09638436E-5	3.26009859E-4
3.40296000E+5	2.10000145E+1	-7.00000000E+0	-2.00000000E+1	1.15714743E-5	6.43667059E-6	2.36752449E-5	1.95252382E-5	6.12086280E-5	3.27318866E-4
3.45499000E+5	2.11000173E+1	-7.00000000E+0	-2.00000000E+1	1.14933862E-5	6.46496492E-6	2.36398963E-5	1.95042395E-5	6.11024870E-5	3.26751267E-4
3.50748000E+5	2.12000222E+1	-7.00000000E+0	-2.00000000E+1	1.15873589E-5	6.45418542E-6	2.35390632E-5	1.94203638E-5	6.10009713E-5	3.26208403E-4
3.55948000E+5	2.12998302E+1	-7.00000000E+0	-2.00000000E+1	1.14998742E-5	6.44375461E-6	2.35391675E-5	1.94010430E-5	6.08838392E-5	3.25582028E-4
3.61171000E+5	2.14001334E+1	-7.00000000E+0	-2.00000000E+1	1.15690692E-5	6.46474140E-6	2.36138998E-5	1.95144915E-5	6.11622019E-5	3.27070598E-4
3.66382000E+5	2.14999504E+1	-7.00000000E+0	-2.00000000E+1	1.14949031E-5	6.42882960E-6	2.35466151E-5	1.94046133E-5	6.08749611E-5	3.25534551E-4
3.71641000E+5	2.16000548E+1	-7.00000000E+0	-2.00000000E+1	1.15433021E-5	6.48109990E-6	2.36166535E-5	1.94705062E-5	6.11115618E-5	3.26799796E-4
3.76893000E+5	2.16999798E+1	-7.00000000E+0	-2.00000000E+1	1.15494652E-5	6.47262710E-6	2.35088376E-5	1.95288026E-5	6.10597326E-5	3.26522634E-4
3.82142000E+5	2.17999793E+1	-7.00000000E+0	-2.00000000E+1	1.15484490E-5	6.44779878E-6	2.35789268E-5	1.94881433E-5	6.10633178E-5	3.26541806E-4
3.87360000E+5	2.18999249E+1	-7.00000000E+0	-2.00000000E+1	1.15070029E-5	6.46924752E-6	2.35299585E-5	1.94197946E-5	6.09260036E-5	3.25807506E-4
3.92586000E+5	2.20001188E+1	-7.00000000E+0	-2.00000000E+1	1.14301785E-5	6.45456093E-6	2.35525159E-5	1.94462084E-5	6.08834637E-5	3.25580020E-4
3.97791000E+5	2.20999166E+1	-7.00000000E+0	-2.00000000E+1	1.14723189E-5	6.43686431E-6	2.35282062E-5	1.94899493E-5	6.09273387E-5	3.25814646E-4
4.03007000E+5	2.22000602E+1	-7.00000000E+0	-2.00000000E+1	1.15873023E-5	6.45361918E-6	2.36026464E-5	1.94796287E-5	6.11231966E-5	3.26862014E-4
4.08225000E+5	2.22999777E+1	-7.00000000E+0	-2.00000000E+1	1.15509703E-5	6.46967965E-6	2.34081147E-5	1.94788092E-5	6.09075738E-5	3.25708951E-4
4.13431000E+5	2.23999376E+1	-7.00000000E+0	-2.00000000E+1	1.14973291E-5	6.45340162E-6	2.34697042E-5	1.94162422E-5	6.08366771E-5	3.25329824E-4
4.18656000E+5	2.25000945E+1	-7.00000000E+0	-2.00000000E+1	1.15810140E-5	6.46638947E-6	2.36082999E-5	1.94828981E-5	6.11386014E-5	3.26944393E-4
4.23896000E+5	2.25998571E+1	-7.00000000E+0	-2.00000000E+1	1.15139379E-5	6.45662623E-6	2.35341070E-5	1.94873148E-5	6.09919859E-5	3.26160352E-4
4.29175000E+5	2.27000874E+1	-7.00000000E+0	-2.00000000E+1	1.15521445E-5	6.44780772E-6	2.35595374E-5	1.95548945E-5	6.11143841E-5	3.26814888E-4
4.34391000E+5	2.28000637E+1	-7.00000000E+0	-2.00000000E+1	1.14465370E-5	6.43152373E-6	2.34940825E-5	1.94407486E-5	6.08128918E-5	3.25202630E-4
4.39593000E+5	2.28999817E+1	-7.00000000E+0	-2.00000000E+1	1.14809467E-5	6.45647126E-6	2.35720692E-5	1.94526606E-5	6.09621478E-5	3.26000791E-4
4.44818000E+5	2.30000445E+1	-7.00000000E+0	-2.00000000E+1	1.15926220E-5	6.40456455E-6	2.33985094E-5	1.93942421E-5	6.07899381E-5	3.25079883E-4
4.50036000E+5	2.30999391E+1	-7.00000000E+0	-2.00000000E+1	1.15926637E-5	6.46537023E-6	2.34574584E-5	1.94737845E-5	6.09892769E-5	3.26145866E-4
4.55243000E+5	2.31998696E+1	-7.00000000E+0	-2.00000000E+1	1.15651949E-5	6.44422250E-6	2.34414665E-5	1.94657587E-5	6.09166427E-5	3.25757447E-4
4.60446000E+5	2.33000030E+1	-7.00000000E+0	-2.00000000E+1	1.14974423E-5	6.41288834E-6	2.35558538E-5	1.94501483E-5	6.09163327E-5	3.25755790E-4
4.65677000E+5	2.34000649E+1	-7.00000000E+0	-2.00000000E+1	1.15447565E-5	6.45407813E-6	2.35111414E-5	1.94632077E-5	6.09731836E-5	3.26059806E-4
4.70925000E+5	2.35000422E+1	-7.00000000E+0	-2.00000000E+1	1.15182920E-5	6.43168466E-6	2.35168664E-5	1.94448464E-5	6.09116895E-5	3.25730960E-4
4.76185000E+5	2.35999673E+1	-7.00000000E+0	-2.00000000E+1	1.15210338E-5	6.45362216E-6	2.35457538E-5	1.94840603E-5	6.10044701E-5	3.26227113E-4
4.81425000E+5	2.37000573E+1	-7.00000000E+0	-2.00000000E+1	1.15183218E-5	6.45248073E-6	2.35674052E-5	1.94618427E-5	6.10000504E-5	3.26203478E-4
4.86676000E+5	2.37999817E+1	-7.00000000E+0	-2.00000000E+1	1.14245220E-5	6.46787661E-6	2.35549776E-5	1.94915914E-5	6.09389676E-5	3.25876832E-4
4.91782000E+5	2.38998186E+1	-7.00000000E+0	-2.00000000E+1	1.15623279E-5	6.45115750E-6	2.35835670E-5	1.94561952E-5	6.10532476E-5	3.26487955E-4
4.96873000E+5	2.39999790E+1	-7.00000000E+0	-2.00000000E+1	1.14969774E-5	6.45054060E-6	2.34012483E-5	1.94482022E-5	6.07969684E-5	3.25117478E-4
5.02072000E+5	2.41001281E+1	-7.00000000E+0	-2.00000000E+1	1.15343674E-5	6.47063630E-6	2.35257683E-5	1.95168995E-5	6.10476716E-5	3.26458137E-4
5.07116000E+5	2.41999201E+1	-7.00000000E+0	-2.00000000E+1	1.14784344E-5	6.44271153E-6	2.34426020E-5	1.93636738E-5	6.07274217E-5	3.24745571E-4
5.12352000E+5	2.43001560E+1	-7.00000000E+0	-2.00000000E+1	1.15366324E-5	6.46128433E-6	2.35730378E-5	1.94613152E-5	6.10322697E-5	3.26375774E-4
5.17449000E+5	2.43999122E+1	-7.00000000E+0	-2.00000000E+1	1.15256740E-5	6.44908028E-6	2.35374240E-5	1.94944524E-5	6.10066308E-5	3.26238667E-4
5.22625000E+5	2.45000983E+1	-7.00000000E+0	-2.00000000E+1	1.15755453E-5	6.45678716E-6	2.33812271E-5	1.95169264E-5	6.09304858E-5	3.25831475E-4
5.27824000E+5	2.46000721E+1	-7.00000000E+0	-2.00000000E+1	1.14594175E-5	6.44431191E-6	2.35442547E-5	1.93747484E-5	6.08227325E-5	3.25255254E-4
5.32953000E+5	2.46999677E+1	-7.00000000E+0	-2.00000000E+1	1.15540518E-5	6.45967799E-6	2.35763101E-5	1.95025706E-5	6.10926105E-5	3.26698452E-4
5.38036000E+5	2.48000247E+1	-7.00000000E+0	-2.00000000E+1	1.15218385E-5	6.43104093E-6	2.35281615E-5	1.93932080E-5	6.08742488E-5	3.25530742E-4
5.43239000E+5	2.48999329E+1	-7.00000000E+0	-2.00000000E+1	1.15506484E-5	6.46583813E-6	2.35657154E-5	1.94896006E-5	6.10718025E-5	3.26587179E-4
5.48444000E+5	2.49999344E+1	-7.00000000E+0	-2.00000000E+1	1.15727558E-5	6.46193403E-6	2.35730020E-5	1.94662505E-5	6.10739423E-5	3.26598622E-4
